title:eight3, start timestamp:1732083597.729469, stop timestamp:1732083632.804198, headset type:EPOCX, headset serial:E5020C3A, headset firmware:730, channels:67, sampling rate:eeg_128;mot_32, samples:4493      , version:2.2, 
Timestamp,OriginalTimestamp,EEG.Counter,EEG.Interpolated,EEG.AF3,EEG.F7,EEG.F3,EEG.FC5,EEG.T7,EEG.P7,EEG.O1,EEG.O2,EEG.P8,EEG.T8,EEG.FC6,EEG.F4,EEG.F8,EEG.AF4,EEG.RawCq,EEG.Battery,EEG.BatteryPercent,MarkerIndex,MarkerType,MarkerValueInt,EEG.MarkerHardware,CQ.AF3,CQ.F7,CQ.F3,CQ.FC5,CQ.T7,CQ.P7,CQ.O1,CQ.O2,CQ.P8,CQ.T8,CQ.FC6,CQ.F4,CQ.F8,CQ.AF4,CQ.Overall,EQ.SampleRateQuality,EQ.OVERALL,EQ.AF3,EQ.F7,EQ.F3,EQ.FC5,EQ.T7,EQ.P7,EQ.O1,EQ.O2,EQ.P8,EQ.T8,EQ.FC6,EQ.F4,EQ.F8,EQ.AF4,MOT.CounterMems,MOT.InterpolatedMems,MOT.Q0,MOT.Q1,MOT.Q2,MOT.Q3,MOT.AccX,MOT.AccY,MOT.AccZ,MOT.MagX,MOT.MagY,MOT.MagZ
1732083597.729469,1732083597.731399,45.000000,0.000000,4318.333496,4307.179688,4316.666504,4313.077148,4310.641113,4304.102539,4346.410156,4334.743652,4327.051270,4312.051270,4468.333496,4485.384766,4365.769043,4422.692383,0.000000,0.000000,6.000000,,,,0.000000,2.000000,2.000000,0.000000,2.000000,2.000000,2.000000,0.000000,2.000000,4.000000,4.000000,4.000000,4.000000,2.000000,4.000000,16.666666,,,,,,,,,,,,,,,,,,,,,,,,,,,,
1732083597.737278,1732083597.739307,46.000000,0.000000,4314.615234,4304.102539,4314.230957,4311.794922,4311.666504,4315.769043,4350.128418,4341.410156,4333.717773,4314.743652,4464.743652,4483.589844,4360.000000,4416.025879,0.000000,0.000000,6.000000,,,,0.000000,2.000000,2.000000,0.000000,2.000000,2.000000,2.000000,0.000000,2.000000,4.000000,4.000000,4.000000,4.000000,2.000000,4.000000,16.666666,,,,,,,,,,,,,,,,,,,,,,,,,,,,
1732083597.745086,1732083597.747116,47.000000,0.000000,4318.589844,4305.769043,4313.333496,4312.179688,4310.769043,4309.230957,4345.384766,4342.948730,4328.205078,4317.563965,4469.102539,4495.000000,4365.512695,4422.179688,0.000000,0.000000,6.000000,,,,0.000000,2.000000,2.000000,0.000000,2.000000,2.000000,2.000000,0.000000,2.000000,4.000000,4.000000,4.000000,4.000000,2.000000,4.000000,16.666666,,,,,,,,,,,,,,,,,,,,,,,,,,,,
1732083597.752894,1732083597.754824,48.000000,0.000000,4318.717773,4305.769043,4316.025879,4313.077148,4308.077148,4295.384766,4342.179688,4335.769043,4326.282227,4316.794922,4475.000000,4494.230957,4369.615234,4430.128418,0.000000,0.000000,6.000000,,,,0.000000,2.000000,2.000000,0.000000,2.000000,2.000000,2.000000,0.000000,2.000000,4.000000,4.000000,4.000000,4.000000,2.000000,4.000000,16.666666,,,,,,,,,,,,,,,,,12.000000,0.000000,0.622345,0.374146,-0.616394,0.304565,0.981077,0.074716,-0.020510,-76.002373,60.840534,29.219412
1732083597.760702,1732083597.762632,49.000000,0.000000,4312.948730,4301.538574,4312.179688,4311.410156,4306.282227,4297.563965,4343.205078,4332.051270,4330.256348,4317.051270,4474.230957,4490.512695,4365.641113,4424.102539,0.000000,0.000000,6.000000,,,,0.000000,2.000000,2.000000,0.000000,2.000000,2.000000,2.000000,0.000000,2.000000,4.000000,4.000000,4.000000,4.000000,2.000000,4.000000,16.666666,,,,,,,,,,,,,,,,,,,,,,,,,,,,
1732083597.768511,1732083597.770241,50.000000,0.000000,4310.128418,4300.128418,4310.897461,4306.538574,4306.794922,4304.743652,4345.641113,4334.230957,4326.025879,4320.256348,4475.897461,4495.512695,4365.512695,4418.974121,0.000000,0.000000,6.000000,,,,0.000000,2.000000,2.000000,0.000000,2.000000,2.000000,2.000000,0.000000,2.000000,4.000000,4.000000,4.000000,4.000000,2.000000,4.000000,16.666666,,,,,,,,,,,,,,,,,,,,,,,,,,,,
1732083597.776319,1732083597.778049,51.000000,0.000000,4311.410156,4301.025879,4313.077148,4305.512695,4308.846191,4302.051270,4344.230957,4333.461426,4324.358887,4319.487305,4480.769043,4497.692383,4371.025879,4423.461426,0.000000,0.000000,6.000000,,,,0.000000,2.000000,2.000000,0.000000,2.000000,2.000000,2.000000,0.000000,2.000000,4.000000,4.000000,4.000000,4.000000,2.000000,4.000000,16.666666,,,,,,,,,,,,,,,,,,,,,,,,,,,,
1732083597.784127,1732083597.785757,52.000000,0.000000,4312.307617,4304.487305,4314.615234,4310.384766,4309.487305,4298.589844,4342.692383,4333.846191,4328.333496,4317.436035,4478.205078,4495.512695,4371.153809,4424.615234,0.000000,0.000000,6.000000,,,,0.000000,2.000000,2.000000,0.000000,2.000000,2.000000,2.000000,0.000000,2.000000,4.000000,4.000000,4.000000,4.000000,2.000000,4.000000,16.666666,,,,,,,,,,,,,,,,,13.000000,0.000000,0.618632,0.373779,-0.618469,0.308350,0.966427,0.076181,-0.018069,-76.170258,60.867500,29.184391
1732083597.791935,1732083597.793565,53.000000,0.000000,4313.077148,4307.948730,4311.538574,4311.666504,4308.846191,4298.333496,4338.461426,4333.589844,4325.256348,4317.051270,4473.077148,4494.358887,4367.948730,4421.282227,0.000000,0.000000,6.000000,,,,0.000000,2.000000,2.000000,0.000000,2.000000,2.000000,2.000000,0.000000,2.000000,4.000000,4.000000,4.000000,4.000000,2.000000,4.000000,16.666666,,,,,,,,,,,,,,,,,,,,,,,,,,,,
1732083597.799744,1732083597.801174,54.000000,0.000000,4313.333496,4305.384766,4312.179688,4310.000000,4308.205078,4301.410156,4340.384766,4329.230957,4321.025879,4311.794922,4473.974121,4495.769043,4369.230957,4418.846191,0.000000,0.000000,6.000000,,,,0.000000,2.000000,2.000000,0.000000,2.000000,2.000000,2.000000,0.000000,2.000000,4.000000,4.000000,4.000000,4.000000,2.000000,4.000000,16.666666,,,,,,,,,,,,,,,,,,,,,,,,,,,,
1732083597.807552,1732083597.808982,55.000000,0.000000,4315.769043,4305.641113,4313.333496,4316.025879,4309.230957,4307.692383,4345.641113,4331.538574,4324.230957,4311.922852,4477.307617,4496.922852,4369.615234,4420.897461,0.000000,0.000000,6.000000,,,,0.000000,2.000000,2.000000,0.000000,2.000000,2.000000,2.000000,0.000000,2.000000,4.000000,4.000000,4.000000,4.000000,2.000000,4.000000,16.666666,,,,,,,,,,,,,,,,,,,,,,,,,,,,
1732083597.815360,1732083597.816890,56.000000,0.000000,4316.410156,4308.846191,4313.846191,4318.846191,4309.487305,4307.436035,4347.436035,4338.461426,4326.538574,4318.846191,4475.512695,4492.948730,4369.102539,4422.179688,0.000000,0.000000,6.000000,,,,0.000000,2.000000,2.000000,0.000000,2.000000,2.000000,2.000000,0.000000,2.000000,4.000000,4.000000,4.000000,4.000000,2.000000,4.000000,16.666666,,,,,,,,,,,,,,,,,14.000000,0.000000,0.616860,0.373474,-0.619812,0.309570,0.992797,0.114272,-0.041509,-76.352905,60.612675,29.242689
1732083597.823168,1732083597.824698,57.000000,0.000000,4312.179688,4308.205078,4315.256348,4312.179688,4309.487305,4304.102539,4344.615234,4334.615234,4324.230957,4316.666504,4470.897461,4484.230957,4369.743652,4416.410156,0.000000,0.000000,6.000000,,,,0.000000,2.000000,2.000000,0.000000,2.000000,2.000000,2.000000,0.000000,2.000000,4.000000,4.000000,4.000000,4.000000,2.000000,4.000000,16.666666,,,,,,,,,,,,,,,,,,,,,,,,,,,,
1732083597.830977,1732083597.832307,58.000000,0.000000,4310.769043,4308.205078,4317.179688,4311.794922,4309.743652,4307.179688,4343.846191,4327.307617,4321.410156,4310.128418,4471.025879,4483.589844,4366.153809,4409.743652,0.000000,0.000000,6.000000,,,,0.000000,2.000000,2.000000,0.000000,2.000000,2.000000,2.000000,0.000000,2.000000,4.000000,4.000000,4.000000,4.000000,2.000000,4.000000,16.666666,,,,,,,,,,,,,,,,,,,,,,,,,,,,
1732083597.838785,1732083597.840115,59.000000,0.000000,4312.692383,4308.846191,4316.282227,4316.282227,4310.897461,4308.974121,4344.102539,4331.025879,4319.871582,4310.000000,4473.717773,4486.153809,4362.563965,4408.333496,0.000000,0.000000,6.000000,,,,0.000000,2.000000,2.000000,0.000000,2.000000,2.000000,2.000000,0.000000,2.000000,4.000000,4.000000,4.000000,4.000000,2.000000,4.000000,16.666666,,,,,,,,,,,,,,,,,,,,,,,,,,,,
1732083597.846593,1732083597.847823,60.000000,0.000000,4313.333496,4306.153809,4313.717773,4314.487305,4314.230957,4306.153809,4345.384766,4337.820313,4320.384766,4308.205078,4473.717773,4484.615234,4364.102539,4410.641113,0.000000,0.000000,6.000000,,,,0.000000,2.000000,2.000000,0.000000,2.000000,2.000000,2.000000,0.000000,2.000000,4.000000,4.000000,4.000000,4.000000,2.000000,4.000000,16.666666,,,,,,,,,,,,,,,,,15.000000,0.000000,0.615718,0.373535,-0.620544,0.310303,0.992797,0.114272,-0.041509,-76.662521,60.156265,29.001579
1732083597.854401,1732083597.855631,61.000000,0.000000,4312.692383,4304.743652,4316.025879,4314.743652,4314.102539,4310.769043,4347.307617,4338.717773,4325.641113,4305.256348,4475.512695,4489.487305,4366.025879,4416.153809,0.000000,0.000000,6.000000,,,,0.000000,2.000000,2.000000,0.000000,2.000000,2.000000,2.000000,0.000000,2.000000,4.000000,4.000000,4.000000,4.000000,2.000000,4.000000,16.666666,,,,,,,,,,,,,,,,,,,,,,,,,,,,
1732083597.862210,1732083597.863240,62.000000,0.000000,4313.461426,4306.282227,4317.307617,4319.615234,4308.333496,4311.666504,4348.205078,4335.897461,4327.436035,4313.846191,4478.974121,4496.410156,4369.102539,4423.717773,0.000000,0.000000,6.000000,,,,0.000000,2.000000,2.000000,0.000000,2.000000,2.000000,2.000000,0.000000,2.000000,4.000000,4.000000,4.000000,4.000000,2.000000,4.000000,16.666666,,,,,,,,,,,,,,,,,,,,,,,,,,,,
1732083597.870018,1732083597.871048,63.000000,0.000000,4316.538574,4307.692383,4313.205078,4319.615234,4306.538574,4301.282227,4347.563965,4332.820313,4322.051270,4320.256348,4480.128418,4495.897461,4371.025879,4425.769043,0.000000,0.000000,6.000000,,,,0.000000,2.000000,2.000000,0.000000,2.000000,2.000000,2.000000,0.000000,2.000000,4.000000,4.000000,4.000000,4.000000,2.000000,4.000000,16.666666,,,,,,,,,,,,,,,,,,,,,,,,,,,,
1732083597.877826,1732083597.878756,64.000000,0.000000,4316.922852,4307.692383,4312.948730,4315.512695,4308.461426,4299.230957,4344.102539,4331.153809,4318.717773,4316.794922,4479.743652,4493.077148,4367.948730,4425.128418,0.000000,0.000000,6.000000,,,,0.000000,2.000000,2.000000,0.000000,2.000000,2.000000,2.000000,0.000000,2.000000,4.000000,4.000000,4.000000,4.000000,2.000000,4.000000,16.666666,,,,,,,,,,,,,,,,,16.000000,0.000000,0.609691,0.375427,-0.623535,0.313904,0.951776,0.158711,-0.099622,-76.764977,59.811577,28.772945
1732083597.885635,1732083597.886565,65.000000,0.000000,4312.820313,4305.128418,4319.358887,4313.974121,4301.922852,4308.205078,4347.179688,4333.717773,4321.666504,4313.589844,4476.666504,4495.512695,4364.615234,4424.230957,1319.000000,0.000000,6.000000,,,,0.000000,2.000000,2.000000,0.000000,2.000000,2.000000,2.000000,0.000000,2.000000,4.000000,4.000000,4.000000,4.000000,2.000000,4.000000,16.666666,,,,,,,,,,,,,,,,,,,,,,,,,,,,
1732083597.893443,1732083597.894173,66.000000,0.000000,4315.384766,4304.871582,4319.487305,4317.307617,4301.794922,4308.846191,4347.563965,4336.153809,4322.436035,4315.512695,4475.384766,4496.153809,4366.282227,4424.487305,1239.000000,0.000000,6.000000,,,,0.000000,2.000000,2.000000,0.000000,2.000000,2.000000,2.000000,0.000000,2.000000,4.000000,4.000000,4.000000,4.000000,2.000000,4.000000,16.666666,,,,,,,,,,,,,,,,,,,,,,,,,,,,
1732083597.901251,1732083597.901981,67.000000,0.000000,4321.922852,4307.436035,4321.538574,4319.230957,4318.077148,4302.307617,4344.743652,4332.948730,4317.692383,4313.974121,4473.717773,4493.461426,4366.025879,4423.589844,1190.000000,0.000000,6.000000,,,,0.000000,2.000000,2.000000,0.000000,2.000000,2.000000,2.000000,0.000000,2.000000,4.000000,4.000000,4.000000,4.000000,2.000000,4.000000,16.666666,,,,,,,,,,,,,,,,,,,,,,,,,,,,
1732083597.909059,1732083597.909889,68.000000,0.000000,4318.974121,4305.769043,4322.307617,4315.641113,4316.922852,4309.615234,4346.153809,4335.128418,4317.692383,4307.179688,4463.717773,4489.358887,4357.179688,4413.846191,1217.000000,0.000000,6.000000,,,,0.000000,2.000000,2.000000,0.000000,2.000000,2.000000,2.000000,0.000000,2.000000,4.000000,4.000000,4.000000,4.000000,2.000000,4.000000,16.666666,,,,,,,,,,,,,,,,,17.000000,0.000000,0.605899,0.377686,-0.624756,0.316101,0.995727,0.098645,-0.112807,-76.914627,59.299042,28.571085
1732083597.916868,1732083597.917697,69.000000,0.000000,4315.128418,4303.974121,4321.666504,4317.436035,4298.077148,4319.615234,4350.897461,4335.897461,4315.256348,4300.897461,4455.641113,4485.128418,4349.871582,4407.948730,1077.000000,0.000000,6.000000,,,,0.000000,2.000000,2.000000,0.000000,2.000000,2.000000,2.000000,0.000000,2.000000,4.000000,4.000000,4.000000,4.000000,2.000000,4.000000,16.666666,,,,,,,,,,,,,,,,,,,,,,,,,,,,
1732083597.924676,1732083597.925705,70.000000,0.000000,4320.897461,4313.333496,4322.051270,4323.974121,4299.102539,4312.948730,4346.538574,4321.922852,4307.563965,4300.641113,4461.538574,4485.384766,4355.384766,4414.615234,1.000000,0.000000,6.000000,,,,0.000000,2.000000,2.000000,0.000000,2.000000,2.000000,2.000000,0.000000,2.000000,4.000000,4.000000,4.000000,4.000000,2.000000,4.000000,16.666666,,,,,,,,,,,,,,,,,,,,,,,,,,,,
1732083597.932484,1732083597.933514,71.000000,0.000000,4322.436035,4317.307617,4323.589844,4321.025879,4306.153809,4301.025879,4343.461426,4316.922852,4309.743652,4302.179688,4467.436035,4486.922852,4362.563965,4418.461426,1172.000000,0.000000,6.000000,,,,0.000000,2.000000,2.000000,0.000000,2.000000,2.000000,2.000000,0.000000,2.000000,4.000000,4.000000,4.000000,4.000000,2.000000,4.000000,16.666666,,,,,,,,,,,,,,,,,,,,,,,,,,,,
1732083597.940292,1732083597.941222,72.000000,0.000000,4317.820313,4309.487305,4318.333496,4316.922852,4298.461426,4302.436035,4344.358887,4330.128418,4316.794922,4306.666504,4464.743652,4485.512695,4360.256348,4417.051270,1371.000000,0.000000,6.000000,,,,0.000000,2.000000,2.000000,0.000000,2.000000,2.000000,2.000000,0.000000,2.000000,4.000000,4.000000,4.000000,4.000000,2.000000,4.000000,16.666666,,,,,,,,,,,,,,,,,18.000000,0.000000,0.603855,0.378418,-0.625610,0.317444,0.993774,0.032719,-0.107435,-76.709183,58.957226,28.430912
1732083597.948101,1732083597.949030,73.000000,0.000000,4315.897461,4306.282227,4314.615234,4319.102539,4293.846191,4305.897461,4343.974121,4330.769043,4312.948730,4307.948730,4462.307617,4485.256348,4357.307617,4420.512695,1529.000000,0.000000,6.000000,,,,0.000000,2.000000,2.000000,0.000000,2.000000,2.000000,2.000000,0.000000,2.000000,4.000000,4.000000,4.000000,4.000000,2.000000,4.000000,16.666666,,,,,,,,,,,,,,,,,,,,,,,,,,,,
1732083597.955909,1732083597.956639,74.000000,0.000000,4318.717773,4310.897461,4318.077148,4320.128418,4297.307617,4296.282227,4342.948730,4318.974121,4306.794922,4303.077148,4465.512695,4485.897461,4362.820313,4425.641113,1384.000000,0.000000,6.000000,,,,0.000000,2.000000,2.000000,0.000000,2.000000,2.000000,2.000000,0.000000,2.000000,4.000000,4.000000,4.000000,4.000000,2.000000,4.000000,16.666666,,,,,,,,,,,,,,,,,,,,,,,,,,,,
1732083597.963717,1732083597.964447,75.000000,0.000000,4320.641113,4315.000000,4313.333496,4319.743652,4300.384766,4296.794922,4343.205078,4321.282227,4312.948730,4306.153809,4468.205078,4484.230957,4364.615234,4423.205078,1523.000000,0.000000,6.000000,,,,0.000000,2.000000,2.000000,0.000000,2.000000,2.000000,2.000000,0.000000,2.000000,4.000000,4.000000,4.000000,4.000000,2.000000,4.000000,16.666666,,,,,,,,,,,,,,,,,,,,,,,,,,,,
1732083597.971526,1732083597.972155,76.000000,0.000000,4316.666504,4310.641113,4310.897461,4318.846191,4301.538574,4309.615234,4344.358887,4330.384766,4316.410156,4311.410156,4462.179688,4482.436035,4360.384766,4416.410156,1745.000000,0.000000,6.000000,,,,0.000000,2.000000,2.000000,0.000000,2.000000,2.000000,2.000000,0.000000,2.000000,4.000000,4.000000,4.000000,4.000000,2.000000,4.000000,16.666666,,,,,,,,,,,,,,,,,19.000000,0.000000,0.597233,0.376465,-0.630066,0.323425,0.970822,-0.034184,-0.069833,-76.891106,58.585354,28.317373
1732083597.979334,1732083597.979963,77.000000,0.000000,4316.282227,4308.717773,4311.666504,4319.358887,4301.666504,4311.538574,4342.307617,4325.384766,4308.717773,4309.102539,4455.256348,4477.436035,4358.205078,4413.077148,1563.000000,0.000000,6.000000,,,,0.000000,2.000000,2.000000,0.000000,2.000000,2.000000,2.000000,0.000000,2.000000,4.000000,4.000000,4.000000,4.000000,2.000000,4.000000,16.666666,,,,,,,,,,,,,,,,,,,,,,,,,,,,
1732083597.987142,1732083597.987971,78.000000,0.000000,4324.871582,4314.743652,4314.230957,4323.205078,4305.897461,4305.128418,4339.358887,4317.948730,4304.871582,4308.333496,4458.205078,4477.051270,4360.769043,4415.000000,1384.000000,0.000000,6.000000,,,,0.000000,2.000000,2.000000,0.000000,2.000000,2.000000,2.000000,0.000000,2.000000,4.000000,4.000000,4.000000,4.000000,2.000000,4.000000,16.666666,1.000000,8.333333,2.000000,2.000000,0.000000,1.000000,2.000000,1.000000,0.000000,2.000000,4.000000,3.000000,4.000000,4.000000,2.000000,4.000000,,,,,,,,,,,,
1732083597.994950,1732083597.995780,79.000000,0.000000,4326.410156,4312.307617,4311.153809,4324.743652,4314.230957,4309.102539,4338.589844,4321.282227,4308.717773,4309.102539,4459.358887,4478.205078,4361.153809,4415.000000,1523.000000,0.000000,6.000000,,,,0.000000,2.000000,2.000000,0.000000,2.000000,2.000000,2.000000,0.000000,2.000000,4.000000,4.000000,4.000000,4.000000,2.000000,4.000000,16.666666,,,,,,,,,,,,,,,,,,,,,,,,,,,,
1732083598.002759,1732083598.003688,80.000000,0.000000,4313.589844,4297.179688,4312.436035,4314.743652,4315.641113,4316.538574,4343.077148,4326.025879,4310.000000,4298.077148,4451.282227,4474.743652,4353.461426,4411.410156,1745.000000,0.000000,6.000000,,,,0.000000,2.000000,2.000000,0.000000,2.000000,2.000000,2.000000,0.000000,2.000000,4.000000,4.000000,4.000000,4.000000,2.000000,4.000000,16.666666,,,,,,,,,,,,,,,,,20.000000,0.000000,0.589617,0.365967,-0.638123,0.333496,0.967403,-0.026859,-0.061043,-77.191795,57.939137,27.865406
1732083598.010567,1732083598.011496,81.000000,0.000000,4310.000000,4295.000000,4309.102539,4309.871582,4310.256348,4312.436035,4341.538574,4329.615234,4315.256348,4296.282227,4451.922852,4475.256348,4350.256348,4415.641113,1563.000000,0.000000,6.000000,,,,0.000000,2.000000,2.000000,0.000000,2.000000,2.000000,2.000000,0.000000,2.000000,4.000000,4.000000,4.000000,4.000000,2.000000,4.000000,16.666666,,,,,,,,,,,,,,,,,,,,,,,,,,,,
1732083598.018375,1732083598.019504,82.000000,0.000000,4318.589844,4301.794922,4308.461426,4313.589844,4308.205078,4310.512695,4341.538574,4340.000000,4326.666504,4312.307617,4462.563965,4484.487305,4357.307617,4421.025879,1384.000000,0.000000,6.000000,,,,0.000000,2.000000,2.000000,0.000000,2.000000,2.000000,2.000000,0.000000,2.000000,4.000000,4.000000,4.000000,4.000000,2.000000,4.000000,16.666666,,,,,,,,,,,,,,,,,,,,,,,,,,,,
1732083598.026183,1732083598.027312,83.000000,0.000000,4323.333496,4298.717773,4308.461426,4312.948730,4310.384766,4315.641113,4342.179688,4345.256348,4328.205078,4319.871582,4470.897461,4490.897461,4367.307617,4427.820313,1523.000000,0.000000,6.000000,,,,0.000000,2.000000,2.000000,0.000000,2.000000,2.000000,2.000000,0.000000,2.000000,4.000000,4.000000,4.000000,4.000000,2.000000,4.000000,16.666666,,,,,,,,,,,,,,,,,,,,,,,,,,,,
1732083598.033992,1732083598.035220,84.000000,0.000000,4331.153809,4300.512695,4311.410156,4314.358887,4305.641113,4303.333496,4339.743652,4331.922852,4319.487305,4317.692383,4477.563965,4496.794922,4374.358887,4441.538574,1745.000000,0.000000,6.000000,,,,0.000000,2.000000,2.000000,0.000000,2.000000,2.000000,2.000000,0.000000,2.000000,4.000000,4.000000,4.000000,4.000000,2.000000,4.000000,16.666666,,,,,,,,,,,,,,,,,21.000000,0.000000,0.585880,0.360901,-0.642029,0.338074,0.981565,-0.026859,-0.053717,-77.485352,57.532368,27.532644
1732083598.041800,1732083598.043028,85.000000,0.000000,4348.205078,4312.436035,4314.358887,4319.615234,4295.128418,4281.794922,4334.615234,4321.794922,4318.461426,4318.077148,4482.307617,4502.563965,4378.974121,4448.461426,1563.000000,0.000000,6.000000,,,,0.000000,2.000000,2.000000,0.000000,2.000000,2.000000,2.000000,0.000000,2.000000,4.000000,4.000000,4.000000,4.000000,2.000000,4.000000,16.666666,,,,,,,,,,,,,,,,,,,,,,,,,,,,
1732083598.049608,1732083598.050637,86.000000,0.000000,4357.563965,4316.153809,4313.846191,4317.436035,4292.436035,4280.641113,4336.025879,4324.102539,4319.487305,4320.641113,4480.897461,4501.282227,4380.512695,4445.384766,1384.000000,0.000000,6.000000,,,,0.000000,2.000000,2.000000,0.000000,2.000000,2.000000,2.000000,0.000000,2.000000,4.000000,4.000000,4.000000,4.000000,2.000000,4.000000,16.666666,,,,,,,,,,,,,,,,,,,,,,,,,,,,
1732083598.057417,1732083598.058445,87.000000,0.000000,4363.717773,4314.230957,4312.692383,4315.769043,4296.410156,4290.256348,4337.820313,4325.128418,4314.487305,4314.615234,4481.153809,4502.307617,4381.410156,4451.025879,1523.000000,0.000000,6.000000,,,,0.000000,2.000000,2.000000,0.000000,2.000000,2.000000,2.000000,0.000000,2.000000,4.000000,4.000000,4.000000,4.000000,2.000000,4.000000,16.666666,,,,,,,,,,,,,,,,,,,,,,,,,,,,
1732083598.065225,1732083598.066353,88.000000,0.000000,4378.589844,4319.102539,4313.205078,4322.948730,4297.051270,4287.563965,4335.256348,4325.512695,4313.205078,4301.794922,4482.307617,4506.666504,4381.025879,4462.692383,1745.000000,0.000000,6.000000,,,,0.000000,2.000000,2.000000,0.000000,2.000000,2.000000,2.000000,0.000000,2.000000,4.000000,4.000000,4.000000,4.000000,2.000000,4.000000,16.666666,,,,,,,,,,,,,,,,,22.000000,0.000000,0.584058,0.358521,-0.643860,0.340271,0.963497,-0.036626,-0.041997,-77.746468,56.894550,27.286442
1732083598.073033,1732083598.074161,89.000000,0.000000,4390.641113,4324.871582,4317.307617,4326.922852,4294.743652,4280.769043,4334.358887,4322.948730,4311.153809,4296.538574,4477.051270,4508.077148,4378.589844,4464.230957,1563.000000,0.000000,6.000000,,,,0.000000,2.000000,2.000000,0.000000,2.000000,2.000000,2.000000,0.000000,2.000000,4.000000,4.000000,4.000000,4.000000,2.000000,4.000000,16.666666,,,,,,,,,,,,,,,,,,,,,,,,,,,,
1732083598.080841,1732083598.082169,90.000000,0.000000,4395.256348,4327.820313,4316.538574,4328.974121,4295.128418,4281.538574,4337.692383,4318.205078,4302.436035,4299.358887,4473.205078,4510.769043,4377.820313,4468.461426,1384.000000,0.000000,6.000000,,,,0.000000,2.000000,2.000000,0.000000,2.000000,2.000000,2.000000,0.000000,2.000000,4.000000,4.000000,4.000000,4.000000,2.000000,4.000000,16.666666,,,,,,,,,,,,,,,,,,,,,,,,,,,,
1732083598.088650,1732083598.089978,91.000000,0.000000,4396.794922,4326.794922,4318.717773,4329.615234,4297.436035,4283.205078,4340.769043,4322.307617,4301.153809,4296.410156,4476.025879,4515.897461,4374.743652,4475.256348,1523.000000,0.000000,6.000000,,,,0.000000,2.000000,2.000000,0.000000,2.000000,2.000000,2.000000,0.000000,2.000000,4.000000,4.000000,4.000000,4.000000,2.000000,4.000000,16.666666,,,,,,,,,,,,,,,,,,,,,,,,,,,,
1732083598.096458,1732083598.097886,92.000000,0.000000,4395.256348,4323.717773,4316.538574,4322.820313,4300.000000,4283.077148,4340.512695,4329.358887,4311.153809,4296.794922,4479.358887,4512.307617,4372.692383,4472.179688,1745.000000,0.000000,6.000000,,,,0.000000,2.000000,2.000000,0.000000,2.000000,2.000000,2.000000,0.000000,2.000000,4.000000,4.000000,4.000000,4.000000,2.000000,4.000000,16.666666,,,,,,,,,,,,,,,,,23.000000,0.000000,0.576914,0.350830,-0.649902,0.348877,0.961543,-0.024417,-0.082041,-78.146309,56.394585,27.103685
1732083598.104266,1732083598.105694,93.000000,0.000000,4392.307617,4325.769043,4319.743652,4320.128418,4297.436035,4279.358887,4338.974121,4323.205078,4313.333496,4308.846191,4483.333496,4506.922852,4379.230957,4469.230957,1563.000000,0.000000,6.000000,,,,0.000000,2.000000,2.000000,0.000000,2.000000,2.000000,2.000000,0.000000,2.000000,4.000000,4.000000,4.000000,4.000000,2.000000,4.000000,16.666666,,,,,,,,,,,,,,,,,,,,,,,,,,,,
1732083598.112074,1732083598.113702,94.000000,0.000000,4395.512695,4332.051270,4318.717773,4326.922852,4297.820313,4280.256348,4338.333496,4317.307617,4309.102539,4312.436035,4486.153809,4506.153809,4382.948730,4473.205078,1384.000000,0.000000,6.000000,,,,0.000000,2.000000,2.000000,0.000000,2.000000,2.000000,2.000000,0.000000,2.000000,4.000000,4.000000,4.000000,4.000000,2.000000,4.000000,16.666666,,,,,,,,,,,,,,,,,,,,,,,,,,,,
1732083598.119882,1732083598.121510,95.000000,0.000000,4398.077148,4331.282227,4318.974121,4328.589844,4303.461426,4284.102539,4340.769043,4323.077148,4310.128418,4303.717773,4483.846191,4510.641113,4376.153809,4474.102539,1523.000000,0.000000,6.000000,,,,0.000000,2.000000,2.000000,0.000000,2.000000,2.000000,2.000000,0.000000,2.000000,4.000000,4.000000,4.000000,4.000000,2.000000,4.000000,16.666666,,,,,,,,,,,,,,,,,,,,,,,,,,,,
1732083598.127691,1732083598.129418,96.000000,0.000000,4399.102539,4328.589844,4318.205078,4329.615234,4304.871582,4283.333496,4339.102539,4326.282227,4311.794922,4302.820313,4486.153809,4509.615234,4378.077148,4474.487305,1745.000000,0.000000,6.000000,,,,0.000000,2.000000,2.000000,0.000000,2.000000,2.000000,2.000000,0.000000,2.000000,4.000000,4.000000,4.000000,4.000000,2.000000,4.000000,16.666666,,,,,,,,,,,,,,,,,24.000000,0.000000,0.573367,0.348389,-0.651978,0.353271,0.963497,-0.025882,-0.071786,-78.433510,55.612949,26.695652
1732083598.135499,1732083598.137226,97.000000,0.000000,4404.358887,4331.538574,4321.538574,4331.410156,4300.384766,4280.641113,4337.820313,4321.153809,4310.000000,4304.615234,4492.948730,4507.820313,4387.948730,4479.743652,1563.000000,0.000000,6.000000,,,,0.000000,2.000000,2.000000,0.000000,2.000000,2.000000,2.000000,0.000000,2.000000,4.000000,4.000000,4.000000,4.000000,2.000000,4.000000,16.666666,,,,,,,,,,,,,,,,,,,,,,,,,,,,
1732083598.143307,1732083598.144835,98.000000,0.000000,4406.025879,4334.615234,4321.410156,4327.948730,4295.256348,4280.256348,4338.846191,4320.512695,4306.922852,4298.717773,4491.153809,4515.897461,4384.102539,4482.692383,1384.000000,0.000000,6.000000,,,,0.000000,2.000000,2.000000,0.000000,2.000000,2.000000,2.000000,0.000000,2.000000,4.000000,4.000000,4.000000,4.000000,2.000000,4.000000,16.666666,,,,,,,,,,,,,,,,,,,,,,,,,,,,
1732083598.151116,1732083598.152643,99.000000,0.000000,4401.922852,4334.743652,4320.256348,4327.307617,4297.692383,4281.282227,4340.641113,4325.128418,4304.358887,4290.128418,4481.538574,4522.436035,4372.307617,4479.230957,1523.000000,0.000000,6.000000,,,,0.000000,2.000000,2.000000,0.000000,2.000000,2.000000,2.000000,0.000000,2.000000,4.000000,4.000000,4.000000,4.000000,2.000000,4.000000,16.666666,,,,,,,,,,,,,,,,,,,,,,,,,,,,
1732083598.158924,1732083598.160351,100.000000,0.000000,4401.666504,4332.436035,4321.025879,4332.307617,4301.538574,4280.769043,4338.333496,4324.615234,4304.230957,4284.102539,4477.051270,4520.128418,4365.128418,4475.384766,1745.000000,0.000000,6.000000,,,,0.000000,2.000000,2.000000,0.000000,2.000000,2.000000,2.000000,0.000000,2.000000,4.000000,4.000000,4.000000,4.000000,2.000000,4.000000,16.666666,,,,,,,,,,,,,,,,,25.000000,0.000000,0.573367,0.348389,-0.651978,0.353271,0.968380,-0.053717,-0.067879,-78.681145,54.799820,26.380144
1732083598.166732,1732083598.168160,101.000000,0.000000,4404.102539,4331.282227,4320.512695,4329.358887,4299.743652,4279.358887,4339.230957,4322.948730,4305.256348,4286.794922,4478.846191,4521.025879,4365.256348,4474.487305,1563.000000,0.000000,6.000000,,,,0.000000,2.000000,2.000000,0.000000,2.000000,2.000000,2.000000,0.000000,2.000000,4.000000,4.000000,4.000000,4.000000,2.000000,4.000000,16.666666,,,,,,,,,,,,,,,,,,,,,,,,,,,,
1732083598.174540,1732083598.175768,102.000000,0.000000,4405.641113,4337.436035,4320.769043,4324.358887,4296.922852,4279.358887,4339.615234,4318.205078,4304.487305,4299.743652,4479.743652,4521.025879,4373.974121,4478.461426,1384.000000,0.000000,6.000000,,,,0.000000,2.000000,2.000000,0.000000,2.000000,2.000000,2.000000,0.000000,2.000000,4.000000,4.000000,4.000000,4.000000,2.000000,4.000000,16.666666,,,,,,,,,,,,,,,,,,,,,,,,,,,,
1732083598.182349,1732083598.183576,103.000000,0.000000,4404.743652,4339.743652,4317.563965,4326.410156,4297.820313,4281.025879,4339.102539,4313.205078,4305.641113,4307.307617,4482.307617,4512.563965,4381.666504,4481.666504,1523.000000,0.000000,6.000000,,,,0.000000,2.000000,2.000000,0.000000,2.000000,2.000000,2.000000,0.000000,2.000000,4.000000,4.000000,4.000000,4.000000,2.000000,4.000000,16.666666,,,,,,,,,,,,,,,,,,,,,,,,,,,,
1732083598.190157,1732083598.191284,104.000000,0.000000,4398.974121,4331.922852,4320.641113,4325.512695,4300.000000,4283.205078,4338.846191,4315.384766,4307.563965,4301.410156,4486.538574,4507.820313,4376.538574,4477.179688,1745.000000,0.000000,6.000000,,,,0.000000,2.000000,2.000000,0.000000,2.000000,2.000000,2.000000,0.000000,2.000000,4.000000,4.000000,4.000000,4.000000,2.000000,4.000000,16.666666,,,,,,,,,,,,,,,,,26.000000,0.000000,0.566913,0.346863,-0.653442,0.362366,0.962520,-0.066414,-0.106458,-79.100060,54.096188,25.892918
1732083598.197965,1732083598.199093,105.000000,0.000000,4396.666504,4330.769043,4321.922852,4322.179688,4300.256348,4282.820313,4337.820313,4317.307617,4304.102539,4295.512695,4482.948730,4508.717773,4370.256348,4470.769043,1563.000000,0.000000,6.000000,,,,0.000000,2.000000,2.000000,0.000000,2.000000,2.000000,2.000000,0.000000,2.000000,4.000000,4.000000,4.000000,4.000000,2.000000,4.000000,16.666666,,,,,,,,,,,,,,,,,,,,,,,,,,,,
1732083598.205773,1732083598.206701,106.000000,0.000000,4401.538574,4339.615234,4321.794922,4326.153809,4298.205078,4282.307617,4336.538574,4316.538574,4301.025879,4290.384766,4475.000000,4514.102539,4371.666504,4471.922852,1384.000000,0.000000,6.000000,,,,0.000000,2.000000,2.000000,0.000000,2.000000,2.000000,2.000000,0.000000,2.000000,4.000000,4.000000,4.000000,4.000000,2.000000,4.000000,16.666666,,,,,,,,,,,,,,,,,,,,,,,,,,,,
1732083598.213582,1732083598.214509,107.000000,0.000000,4401.410156,4341.922852,4319.487305,4330.897461,4296.025879,4283.461426,4340.000000,4319.487305,4302.307617,4285.897461,4475.256348,4516.410156,4371.922852,4476.153809,1523.000000,0.000000,6.000000,,,,0.000000,2.000000,2.000000,0.000000,2.000000,2.000000,2.000000,0.000000,2.000000,4.000000,4.000000,4.000000,4.000000,2.000000,4.000000,16.666666,,,,,,,,,,,,,,,,,,,,,,,,,,,,
1732083598.221390,1732083598.222218,108.000000,0.000000,4396.410156,4336.153809,4321.410156,4328.589844,4295.641113,4280.769043,4341.666504,4320.000000,4301.025879,4290.897461,4477.179688,4509.871582,4370.641113,4474.102539,1745.000000,0.000000,6.000000,,,,0.000000,2.000000,2.000000,0.000000,2.000000,2.000000,2.000000,0.000000,2.000000,4.000000,4.000000,4.000000,4.000000,2.000000,4.000000,16.666666,,,,,,,,,,,,,,,,,27.000000,0.000000,0.562409,0.347595,-0.653015,0.369385,1.009889,-0.089366,-0.105482,-79.569382,53.371246,25.571596
1732083598.229198,1732083598.230026,109.000000,0.000000,4395.384766,4334.358887,4322.051270,4328.589844,4297.436035,4284.487305,4338.974121,4319.358887,4302.563965,4292.051270,4477.179688,4505.000000,4371.282227,4468.077148,1563.000000,0.000000,6.000000,,,,0.000000,2.000000,2.000000,0.000000,2.000000,2.000000,2.000000,0.000000,2.000000,4.000000,4.000000,4.000000,4.000000,2.000000,4.000000,16.666666,,,,,,,,,,,,,,,,,,,,,,,,,,,,
1732083598.237007,1732083598.238034,110.000000,0.000000,4390.384766,4335.128418,4322.948730,4329.358887,4297.820313,4293.846191,4341.025879,4323.717773,4310.128418,4284.230957,4476.538574,4510.641113,4369.871582,4464.102539,1384.000000,0.000000,6.000000,,,,0.000000,2.000000,2.000000,0.000000,2.000000,2.000000,2.000000,0.000000,2.000000,4.000000,4.000000,4.000000,4.000000,2.000000,4.000000,16.666666,,,,,,,,,,,,,,,,,,,,,,,,,,,,
1732083598.244815,1732083598.245842,111.000000,0.000000,4389.230957,4336.025879,4324.615234,4328.333496,4296.025879,4287.948730,4341.282227,4318.333496,4308.717773,4288.205078,4475.897461,4511.538574,4370.384766,4463.846191,1523.000000,0.000000,6.000000,,,,0.000000,2.000000,2.000000,0.000000,2.000000,2.000000,2.000000,0.000000,2.000000,4.000000,4.000000,4.000000,4.000000,2.000000,4.000000,16.666666,,,,,,,,,,,,,,,,,,,,,,,,,,,,
1732083598.252623,1732083598.253550,112.000000,0.000000,4389.358887,4335.128418,4326.410156,4327.179688,4294.487305,4283.717773,4339.743652,4313.205078,4301.025879,4298.077148,4475.128418,4505.000000,4372.948730,4462.948730,1745.000000,0.000000,6.000000,,,,0.000000,2.000000,2.000000,0.000000,2.000000,2.000000,2.000000,0.000000,2.000000,4.000000,4.000000,4.000000,4.000000,2.000000,4.000000,16.666666,,,,,,,,,,,,,,,,,28.000000,0.000000,0.557216,0.347778,-0.653748,0.375732,0.994262,-0.109388,-0.093273,-79.954529,52.470711,25.214659
1732083598.260431,1732083598.261359,113.000000,0.000000,4380.384766,4331.922852,4326.282227,4326.282227,4296.794922,4292.179688,4339.871582,4318.333496,4303.717773,4295.897461,4475.256348,4504.230957,4374.487305,4457.307617,1563.000000,0.000000,6.000000,,,,0.000000,2.000000,2.000000,0.000000,2.000000,2.000000,2.000000,0.000000,2.000000,4.000000,4.000000,4.000000,4.000000,2.000000,4.000000,16.666666,,,,,,,,,,,,,,,,,,,,,,,,,,,,
1732083598.268240,1732083598.268967,114.000000,0.000000,4378.589844,4331.025879,4326.794922,4324.487305,4296.538574,4285.897461,4342.820313,4312.563965,4305.384766,4291.410156,4473.846191,4506.794922,4372.051270,4454.615234,1384.000000,0.000000,6.000000,,,,0.000000,2.000000,2.000000,0.000000,2.000000,2.000000,2.000000,0.000000,2.000000,4.000000,4.000000,4.000000,4.000000,2.000000,4.000000,16.666666,,,,,,,,,,,,,,,,,,,,,,,,,,,,
1732083598.276048,1732083598.276775,115.000000,0.000000,4383.077148,4331.153809,4328.589844,4326.282227,4294.230957,4278.846191,4342.820313,4310.256348,4305.128418,4297.436035,4472.948730,4506.538574,4367.692383,4456.794922,1523.000000,0.000000,6.000000,,,,0.000000,2.000000,2.000000,0.000000,2.000000,2.000000,2.000000,0.000000,2.000000,4.000000,4.000000,4.000000,4.000000,2.000000,4.000000,16.666666,,,,,,,,,,,,,,,,,,,,,,,,,,,,
1732083598.283856,1732083598.284483,116.000000,0.000000,4377.820313,4329.102539,4329.230957,4328.717773,4295.128418,4290.897461,4345.256348,4331.538574,4318.205078,4301.922852,4476.410156,4505.512695,4365.000000,4455.128418,1745.000000,0.000000,6.000000,,,,0.000000,2.000000,2.000000,0.000000,2.000000,2.000000,2.000000,0.000000,2.000000,4.000000,4.000000,4.000000,4.000000,2.000000,4.000000,16.666666,,,,,,,,,,,,,,,,,29.000000,0.000000,0.555521,0.347473,-0.654297,0.377563,0.994262,-0.109388,-0.093273,-80.343170,51.272942,25.015541
1732083598.291664,1732083598.292292,117.000000,0.000000,4375.128418,4326.794922,4328.077148,4326.410156,4295.384766,4292.051270,4343.846191,4338.589844,4325.384766,4301.922852,4479.230957,4505.897461,4365.641113,4454.102539,1563.000000,0.000000,6.000000,,,,0.000000,2.000000,2.000000,0.000000,2.000000,2.000000,2.000000,0.000000,2.000000,4.000000,4.000000,4.000000,4.000000,2.000000,4.000000,16.666666,,,,,,,,,,,,,,,,,,,,,,,,,,,,
1732083598.299473,1732083598.299900,118.000000,0.000000,4380.641113,4327.179688,4324.230957,4324.230957,4293.974121,4285.256348,4340.769043,4322.436035,4317.307617,4305.641113,4477.436035,4505.384766,4367.563965,4454.743652,1384.000000,0.000000,6.000000,,,,0.000000,2.000000,2.000000,0.000000,2.000000,2.000000,2.000000,0.000000,2.000000,4.000000,4.000000,4.000000,4.000000,2.000000,4.000000,16.666666,,,,,,,,,,,,,,,,,,,,,,,,,,,,
1732083598.307281,1732083598.307708,119.000000,0.000000,4380.256348,4325.128418,4322.563965,4325.897461,4296.153809,4294.230957,4342.307617,4322.563965,4320.769043,4310.128418,4475.641113,4511.538574,4365.769043,4452.948730,1523.000000,0.000000,6.000000,,,,0.000000,2.000000,2.000000,0.000000,2.000000,2.000000,2.000000,0.000000,2.000000,4.000000,4.000000,4.000000,4.000000,2.000000,4.000000,16.666666,,,,,,,,,,,,,,,,,,,,,,,,,,,,
1732083598.315089,1732083598.315417,120.000000,0.000000,4377.307617,4322.436035,4323.846191,4328.077148,4299.358887,4298.077148,4343.077148,4328.717773,4326.282227,4305.128418,4477.948730,4516.282227,4365.384766,4456.410156,1745.000000,0.000000,6.000000,,,,0.000000,2.000000,2.000000,0.000000,2.000000,2.000000,2.000000,0.000000,2.000000,4.000000,4.000000,4.000000,4.000000,2.000000,4.000000,16.666666,,,,,,,,,,,,,,,,,30.000000,0.000000,0.548764,0.346069,-0.657043,0.383911,0.965450,-0.114272,-0.123550,-80.354637,50.599415,24.695921
1732083598.322898,1732083598.323225,121.000000,0.000000,4379.102539,4322.179688,4323.974121,4325.641113,4297.563965,4292.436035,4339.615234,4317.179688,4313.717773,4301.410156,4478.333496,4512.948730,4366.025879,4461.794922,1563.000000,0.000000,6.000000,,,,0.000000,2.000000,2.000000,0.000000,2.000000,2.000000,2.000000,0.000000,2.000000,4.000000,4.000000,4.000000,4.000000,2.000000,4.000000,16.666666,,,,,,,,,,,,,,,,,,,,,,,,,,,,
1732083598.330706,1732083598.331233,122.000000,0.000000,4376.410156,4319.358887,4320.769043,4325.769043,4298.077148,4295.256348,4341.025879,4308.974121,4310.000000,4310.512695,4475.512695,4510.256348,4365.000000,4455.897461,1384.000000,0.000000,6.000000,,,,0.000000,2.000000,2.000000,0.000000,2.000000,2.000000,2.000000,0.000000,2.000000,4.000000,4.000000,4.000000,4.000000,2.000000,4.000000,16.666666,,,,,,,,,,,,,,,,,,,,,,,,,,,,
1732083598.338514,1732083598.339041,123.000000,0.000000,4371.153809,4318.974121,4322.307617,4328.461426,4302.179688,4297.051270,4343.717773,4320.000000,4322.307617,4316.538574,4476.153809,4512.692383,4365.641113,4449.358887,1523.000000,0.000000,6.000000,,,,0.000000,2.000000,2.000000,0.000000,2.000000,2.000000,2.000000,0.000000,2.000000,4.000000,4.000000,4.000000,4.000000,2.000000,4.000000,16.666666,,,,,,,,,,,,,,,,,,,,,,,,,,,,
1732083598.346322,1732083598.346749,124.000000,0.000000,4367.692383,4321.794922,4323.846191,4324.487305,4304.615234,4296.410156,4343.205078,4331.282227,4323.846191,4309.487305,4476.410156,4505.641113,4366.282227,4449.871582,1745.000000,0.000000,6.000000,,,,0.000000,2.000000,2.000000,0.000000,2.000000,2.000000,2.000000,0.000000,2.000000,4.000000,4.000000,4.000000,4.000000,2.000000,4.000000,16.666666,,,,,,,,,,,,,,,,,31.000000,0.000000,0.547157,0.345886,-0.657837,0.385010,1.000610,-0.126969,-0.113783,-80.568924,50.083858,24.380363
1732083598.354131,1732083598.354558,125.000000,0.000000,4364.871582,4319.743652,4321.794922,4320.897461,4302.820313,4300.769043,4343.974121,4328.974121,4315.000000,4304.615234,4472.692383,4497.051270,4363.077148,4443.974121,1563.000000,0.000000,6.000000,,,,0.000000,2.000000,2.000000,0.000000,2.000000,2.000000,2.000000,0.000000,2.000000,4.000000,4.000000,4.000000,4.000000,2.000000,4.000000,16.666666,,,,,,,,,,,,,,,,,,,,,,,,,,,,
1732083598.361939,1732083598.362166,126.000000,0.000000,4362.948730,4319.743652,4321.025879,4322.307617,4298.974121,4300.256348,4343.589844,4325.512695,4314.487305,4307.179688,4471.794922,4501.410156,4362.436035,4439.358887,1384.000000,0.000000,6.000000,,,,0.000000,2.000000,2.000000,0.000000,2.000000,2.000000,2.000000,0.000000,2.000000,4.000000,4.000000,4.000000,4.000000,2.000000,4.000000,16.666666,,,,,,,,,,,,,,,,,,,,,,,,,,,,
1732083598.369747,1732083598.369974,127.000000,0.000000,4363.717773,4321.538574,4323.846191,4320.384766,4295.641113,4296.153809,4341.282227,4331.282227,4322.692383,4312.179688,4476.153809,4506.666504,4370.000000,4445.384766,6.000000,0.000000,6.000000,,,,0.000000,2.000000,2.000000,0.000000,2.000000,2.000000,2.000000,0.000000,2.000000,4.000000,4.000000,4.000000,4.000000,2.000000,4.000000,16.666666,,,,,,,,,,,,,,,,,,,,,,,,,,,,
1732083598.377555,1732083598.377682,0.000000,0.000000,4364.102539,4320.256348,4324.615234,4316.666504,4294.102539,4295.641113,4340.128418,4339.487305,4331.538574,4317.179688,4481.410156,4506.666504,4371.153809,4447.436035,0.000000,0.000000,6.000000,,,,0.000000,2.000000,2.000000,0.000000,2.000000,2.000000,2.000000,0.000000,2.000000,4.000000,4.000000,4.000000,4.000000,2.000000,4.000000,16.666666,,,,,,,,,,,,,,,,,0.000000,0.000000,0.545428,0.345581,-0.658752,0.386169,1.000610,-0.126969,-0.113783,-80.844162,49.419594,24.248095
1732083598.385364,1732083598.385491,1.000000,0.000000,4358.077148,4320.641113,4322.820313,4319.230957,4295.512695,4297.179688,4341.282227,4335.897461,4334.230957,4316.922852,4480.384766,4505.897461,4366.666504,4440.256348,1322.000000,0.000000,6.000000,,,,0.000000,2.000000,2.000000,0.000000,2.000000,2.000000,2.000000,0.000000,2.000000,4.000000,4.000000,4.000000,4.000000,2.000000,4.000000,16.666666,,,,,,,,,,,,,,,,,,,,,,,,,,,,
1732083598.393172,1732083598.393499,2.000000,0.000000,4356.410156,4326.025879,4321.794922,4326.025879,4300.000000,4301.153809,4340.128418,4328.589844,4329.358887,4315.641113,4476.025879,4505.897461,4366.922852,4438.846191,1237.000000,0.000000,6.000000,,,,0.000000,2.000000,2.000000,0.000000,2.000000,2.000000,2.000000,0.000000,2.000000,4.000000,4.000000,4.000000,4.000000,2.000000,4.000000,16.666666,,,,,,,,,,,,,,,,,,,,,,,,,,,,
1732083598.400980,1732083598.401307,3.000000,0.000000,4362.307617,4326.025879,4325.897461,4328.717773,4306.410156,4306.922852,4342.563965,4329.743652,4323.589844,4311.922852,4476.025879,4506.025879,4368.333496,4443.974121,1190.000000,0.000000,6.000000,,,,0.000000,2.000000,2.000000,0.000000,2.000000,2.000000,2.000000,0.000000,2.000000,4.000000,4.000000,4.000000,4.000000,2.000000,4.000000,16.666666,,,,,,,,,,,,,,,,,,,,,,,,,,,,
1732083598.408788,1732083598.409215,4.000000,0.000000,4364.358887,4320.128418,4330.000000,4328.461426,4309.487305,4304.358887,4340.128418,4326.410156,4319.487305,4305.384766,4479.743652,4507.179688,4369.102539,4445.641113,1217.000000,0.000000,6.000000,,,,0.000000,2.000000,2.000000,0.000000,2.000000,2.000000,2.000000,0.000000,2.000000,4.000000,4.000000,4.000000,4.000000,2.000000,4.000000,16.666666,,,,,,,,,,,,,,,,,1.000000,0.000000,0.538823,0.341248,-0.663513,0.391113,0.940056,-0.179709,-0.121109,-81.032104,48.991539,24.105957
1732083598.416597,1732083598.417023,5.000000,0.000000,4361.410156,4322.820313,4328.589844,4327.307617,4307.179688,4294.743652,4335.000000,4315.000000,4316.794922,4306.025879,4479.230957,4507.820313,4370.384766,4443.589844,1072.000000,0.000000,6.000000,,,,0.000000,2.000000,2.000000,0.000000,2.000000,2.000000,2.000000,0.000000,2.000000,4.000000,4.000000,4.000000,4.000000,2.000000,4.000000,16.666666,,,,,,,,,,,,,,,,,,,,,,,,,,,,
1732083598.424405,1732083598.425031,6.000000,0.000000,4360.256348,4326.538574,4327.179688,4326.922852,4304.615234,4295.641113,4336.282227,4316.153809,4319.615234,4315.512695,4476.666504,4509.743652,4369.358887,4443.974121,1.000000,0.000000,6.000000,,,,0.000000,2.000000,2.000000,0.000000,2.000000,2.000000,2.000000,0.000000,2.000000,4.000000,4.000000,4.000000,4.000000,2.000000,4.000000,16.666666,,,,,,,,,,,,,,,,,,,,,,,,,,,,
1732083598.432213,1732083598.432839,7.000000,0.000000,4358.333496,4321.153809,4329.615234,4325.897461,4302.436035,4303.461426,4342.692383,4332.948730,4326.538574,4320.128418,4477.051270,4513.589844,4366.153809,4446.538574,1175.000000,0.000000,6.000000,,,,0.000000,2.000000,2.000000,0.000000,2.000000,2.000000,2.000000,0.000000,2.000000,4.000000,4.000000,4.000000,4.000000,2.000000,4.000000,16.666666,,,,,,,,,,,,,,,,,,,,,,,,,,,,
1732083598.440021,1732083598.440748,8.000000,0.000000,4356.794922,4317.820313,4331.025879,4323.589844,4301.794922,4304.487305,4343.461426,4336.410156,4328.846191,4312.692383,4479.487305,4514.743652,4366.282227,4447.692383,1369.000000,0.000000,6.000000,,,,0.000000,2.000000,2.000000,0.000000,2.000000,2.000000,2.000000,0.000000,2.000000,4.000000,4.000000,4.000000,4.000000,2.000000,4.000000,16.666666,,,,,,,,,,,,,,,,,2.000000,0.000000,0.535211,0.338928,-0.666321,0.393311,0.922964,-0.172873,-0.118178,-81.351006,48.394814,23.824158
1732083598.447830,1732083598.448556,9.000000,0.000000,4361.666504,4326.538574,4330.512695,4328.846191,4304.230957,4298.717773,4340.256348,4323.717773,4323.205078,4307.307617,4481.153809,4511.794922,4374.615234,4448.717773,1528.000000,0.000000,6.000000,,,,0.000000,2.000000,2.000000,0.000000,2.000000,2.000000,2.000000,0.000000,2.000000,4.000000,4.000000,4.000000,4.000000,2.000000,4.000000,16.666666,,,,,,,,,,,,,,,,,,,,,,,,,,,,
1732083598.455638,1732083598.456564,10.000000,0.000000,4364.743652,4335.384766,4336.410156,4332.563965,4303.077148,4295.641113,4338.077148,4324.871582,4322.307617,4308.077148,4482.948730,4511.666504,4382.948730,4449.487305,1384.000000,0.000000,6.000000,,,,0.000000,2.000000,2.000000,0.000000,2.000000,2.000000,2.000000,0.000000,2.000000,4.000000,4.000000,4.000000,4.000000,2.000000,4.000000,16.666666,,,,,,,,,,,,,,,,,,,,,,,,,,,,
1732083598.463446,1732083598.464372,11.000000,0.000000,4361.538574,4333.974121,4340.384766,4329.358887,4299.230957,4298.974121,4341.666504,4337.179688,4328.974121,4305.128418,4482.051270,4510.641113,4380.384766,4447.051270,1523.000000,0.000000,6.000000,,,,0.000000,2.000000,2.000000,0.000000,2.000000,2.000000,2.000000,0.000000,2.000000,4.000000,4.000000,4.000000,4.000000,2.000000,4.000000,16.666666,,,,,,,,,,,,,,,,,,,,,,,,,,,,
1732083598.471254,1732083598.472280,12.000000,0.000000,4362.051270,4333.717773,4338.205078,4328.717773,4300.128418,4299.615234,4345.256348,4334.487305,4330.128418,4302.563965,4484.487305,4512.948730,4379.743652,4447.179688,1746.000000,0.000000,6.000000,,,,0.000000,2.000000,2.000000,0.000000,2.000000,2.000000,2.000000,0.000000,2.000000,4.000000,4.000000,4.000000,4.000000,2.000000,4.000000,16.666666,,,,,,,,,,,,,,,,,3.000000,0.000000,0.535211,0.338928,-0.666321,0.393311,0.949823,-0.172384,-0.153339,-81.729309,47.836464,23.565901
1732083598.479063,1732083598.480088,13.000000,0.000000,4364.615234,4335.384766,4333.974121,4331.025879,4303.717773,4295.897461,4341.666504,4318.333496,4323.205078,4311.282227,4484.487305,4513.461426,4386.794922,4448.974121,1559.000000,0.000000,6.000000,,,,0.000000,2.000000,2.000000,0.000000,2.000000,2.000000,2.000000,0.000000,2.000000,4.000000,4.000000,4.000000,4.000000,2.000000,4.000000,16.666666,,,,,,,,,,,,,,,,,,,,,,,,,,,,
1732083598.486871,1732083598.488096,14.000000,0.000000,4362.307617,4331.922852,4334.487305,4328.205078,4304.102539,4294.358887,4340.000000,4313.846191,4319.230957,4317.563965,4480.384766,4511.794922,4386.666504,4449.487305,1384.000000,0.000000,6.000000,,,,0.000000,2.000000,2.000000,0.000000,2.000000,2.000000,2.000000,0.000000,2.000000,4.000000,4.000000,4.000000,4.000000,2.000000,4.000000,16.666666,1.000000,8.333333,2.000000,2.000000,0.000000,1.000000,2.000000,2.000000,0.000000,2.000000,4.000000,4.000000,4.000000,4.000000,2.000000,4.000000,,,,,,,,,,,,
1732083598.494679,1732083598.495904,15.000000,0.000000,4360.897461,4327.692383,4334.230957,4326.666504,4302.051270,4295.897461,4341.025879,4318.333496,4321.922852,4308.077148,4482.692383,4511.794922,4385.641113,4449.487305,1523.000000,0.000000,6.000000,,,,0.000000,2.000000,2.000000,0.000000,2.000000,2.000000,2.000000,0.000000,2.000000,4.000000,4.000000,4.000000,4.000000,2.000000,4.000000,16.666666,,,,,,,,,,,,,,,,,,,,,,,,,,,,
1732083598.502488,1732083598.503813,16.000000,0.000000,4356.025879,4325.384766,4331.922852,4329.871582,4298.589844,4295.256348,4340.256348,4324.230957,4325.000000,4303.205078,4488.717773,4514.487305,4389.871582,4452.436035,0.000000,0.000000,6.000000,,,,0.000000,2.000000,2.000000,0.000000,2.000000,2.000000,2.000000,0.000000,2.000000,4.000000,4.000000,4.000000,4.000000,2.000000,4.000000,16.666666,,,,,,,,,,,,,,,,,4.000000,0.000000,0.532100,0.337646,-0.668701,0.394592,0.964962,-0.168478,-0.146991,-81.559074,46.917538,23.236713
1732083598.510296,1732083598.511621,17.000000,0.000000,4348.589844,4324.871582,4328.846191,4325.512695,4294.871582,4292.436035,4336.538574,4332.051270,4325.512695,4313.974121,4490.128418,4514.358887,4389.230957,4453.077148,0.000000,0.000000,6.000000,,,,0.000000,2.000000,2.000000,0.000000,2.000000,2.000000,2.000000,0.000000,2.000000,4.000000,4.000000,4.000000,4.000000,2.000000,4.000000,16.666666,,,,,,,,,,,,,,,,,,,,,,,,,,,,
1732083598.518104,1732083598.519229,18.000000,0.000000,4349.358887,4326.153809,4327.692383,4324.230957,4295.128418,4293.974121,4338.205078,4327.436035,4319.487305,4322.436035,4490.897461,4510.256348,4387.307617,4452.563965,0.000000,0.000000,6.000000,,,,0.000000,2.000000,2.000000,0.000000,2.000000,2.000000,2.000000,0.000000,2.000000,4.000000,4.000000,4.000000,4.000000,2.000000,4.000000,16.666666,,,,,,,,,,,,,,,,,,,,,,,,,,,,
1732083598.525912,1732083598.527037,19.000000,0.000000,4351.282227,4323.333496,4329.230957,4330.384766,4295.769043,4296.922852,4339.615234,4318.589844,4318.717773,4322.563965,4492.948730,4512.051270,4388.589844,4453.205078,0.000000,0.000000,6.000000,,,,0.000000,2.000000,2.000000,0.000000,2.000000,2.000000,2.000000,0.000000,2.000000,4.000000,4.000000,4.000000,4.000000,2.000000,4.000000,16.666666,,,,,,,,,,,,,,,,,,,,,,,,,,,,
1732083598.533721,1732083598.534746,20.000000,0.000000,4350.256348,4318.077148,4327.563965,4330.641113,4295.512695,4295.897461,4341.025879,4322.820313,4321.922852,4323.333496,4493.333496,4514.871582,4391.025879,4452.692383,0.000000,0.000000,6.000000,,,,0.000000,2.000000,2.000000,0.000000,2.000000,2.000000,2.000000,0.000000,2.000000,4.000000,4.000000,4.000000,4.000000,2.000000,4.000000,16.666666,,,,,,,,,,,,,,,,,5.000000,0.000000,0.526445,0.335938,-0.671570,0.398743,0.957636,-0.232450,-0.144061,-81.711182,46.473206,23.081738
1732083598.541529,1732083598.542554,21.000000,0.000000,4352.692383,4320.256348,4324.358887,4328.717773,4302.179688,4298.717773,4342.307617,4331.153809,4315.769043,4322.307617,4493.461426,4513.077148,4392.820313,4452.820313,0.000000,0.000000,6.000000,,,,0.000000,2.000000,2.000000,0.000000,2.000000,2.000000,2.000000,0.000000,2.000000,4.000000,4.000000,4.000000,4.000000,2.000000,4.000000,16.666666,,,,,,,,,,,,,,,,,,,,,,,,,,,,
1732083598.549337,1732083598.550162,22.000000,0.000000,4353.846191,4325.000000,4325.000000,4333.461426,4304.358887,4303.717773,4342.563965,4325.128418,4308.333496,4314.102539,4492.563965,4510.000000,4391.538574,4453.205078,0.000000,0.000000,6.000000,,,,0.000000,2.000000,2.000000,0.000000,2.000000,2.000000,2.000000,0.000000,2.000000,4.000000,4.000000,4.000000,4.000000,2.000000,4.000000,16.666666,,,,,,,,,,,,,,,,,,,,,,,,,,,,
1732083598.557145,1732083598.557971,23.000000,0.000000,4353.974121,4323.717773,4328.333496,4336.922852,4301.538574,4300.000000,4337.179688,4312.436035,4306.538574,4313.333496,4488.846191,4509.358887,4390.512695,4452.948730,0.000000,0.000000,6.000000,,,,0.000000,2.000000,2.000000,0.000000,2.000000,2.000000,2.000000,0.000000,2.000000,4.000000,4.000000,4.000000,4.000000,2.000000,4.000000,16.666666,,,,,,,,,,,,,,,,,,,,,,,,,,,,
1732083598.564954,1732083598.565879,24.000000,0.000000,4352.179688,4320.769043,4328.717773,4330.256348,4301.282227,4296.410156,4336.922852,4326.538574,4311.410156,4315.384766,4487.692383,4508.974121,4386.153809,4449.871582,0.000000,0.000000,6.000000,,,,0.000000,2.000000,2.000000,0.000000,2.000000,2.000000,2.000000,0.000000,2.000000,4.000000,4.000000,4.000000,4.000000,2.000000,4.000000,16.666666,,,,,,,,,,,,,,,,,6.000000,0.000000,0.523894,0.333984,-0.672974,0.401367,0.926383,-0.230497,-0.136735,-81.924393,46.131630,22.921207
1732083598.572762,1732083598.573687,25.000000,0.000000,4345.256348,4318.461426,4328.205078,4324.358887,4300.897461,4298.974121,4343.717773,4347.307617,4321.922852,4311.153809,4489.487305,4512.563965,4380.897461,4445.256348,0.000000,0.000000,6.000000,,,,0.000000,2.000000,2.000000,0.000000,2.000000,2.000000,2.000000,0.000000,2.000000,4.000000,4.000000,4.000000,4.000000,2.000000,4.000000,16.666666,,,,,,,,,,,,,,,,,,,,,,,,,,,,
1732083598.580570,1732083598.581295,26.000000,0.000000,4347.179688,4317.179688,4325.512695,4325.000000,4300.128418,4297.051270,4341.794922,4330.641113,4323.461426,4311.410156,4491.922852,4513.077148,4388.205078,4444.230957,0.000000,0.000000,6.000000,,,,0.000000,2.000000,2.000000,0.000000,2.000000,2.000000,2.000000,0.000000,2.000000,4.000000,4.000000,4.000000,4.000000,2.000000,4.000000,16.666666,,,,,,,,,,,,,,,,,,,,,,,,,,,,
1732083598.588379,1732083598.589104,27.000000,0.000000,4353.077148,4320.128418,4323.974121,4324.358887,4302.051270,4291.282227,4332.051270,4301.153809,4309.102539,4316.282227,4492.307617,4507.307617,4397.307617,4448.589844,0.000000,0.000000,6.000000,,,,0.000000,2.000000,2.000000,0.000000,2.000000,2.000000,2.000000,0.000000,2.000000,4.000000,4.000000,4.000000,4.000000,2.000000,4.000000,16.666666,,,,,,,,,,,,,,,,,,,,,,,,,,,,
1732083598.596187,1732083598.596812,28.000000,0.000000,4350.512695,4321.666504,4323.974121,4323.461426,4305.000000,4293.717773,4333.461426,4305.000000,4307.307617,4316.666504,4491.282227,4511.153809,4393.717773,4456.153809,0.000000,0.000000,6.000000,,,,0.000000,2.000000,2.000000,0.000000,2.000000,2.000000,2.000000,0.000000,2.000000,4.000000,4.000000,4.000000,4.000000,2.000000,4.000000,16.666666,,,,,,,,,,,,,,,,,7.000000,0.000000,0.522864,0.332947,-0.673523,0.402649,0.949823,-0.240752,-0.143572,-82.037094,45.589954,22.699511
1732083598.603995,1732083598.604620,29.000000,0.000000,4350.641113,4319.615234,4327.692383,4325.384766,4304.102539,4296.922852,4341.153809,4323.846191,4316.282227,4314.102539,4492.051270,4517.179688,4390.000000,4456.282227,0.000000,0.000000,6.000000,,,,0.000000,2.000000,2.000000,0.000000,2.000000,2.000000,2.000000,0.000000,2.000000,4.000000,4.000000,4.000000,4.000000,2.000000,4.000000,16.666666,,,,,,,,,,,,,,,,,,,,,,,,,,,,
1732083598.611803,1732083598.612228,30.000000,0.000000,4352.820313,4318.846191,4330.384766,4327.051270,4304.615234,4298.846191,4339.871582,4327.307617,4313.205078,4311.538574,4492.692383,4509.615234,4389.230957,4451.666504,0.000000,0.000000,6.000000,,,,0.000000,2.000000,2.000000,0.000000,2.000000,2.000000,2.000000,0.000000,2.000000,4.000000,4.000000,4.000000,4.000000,2.000000,4.000000,16.666666,,,,,,,,,,,,,,,,,,,,,,,,,,,,
1732083598.619612,1732083598.620037,31.000000,0.000000,4347.948730,4318.077148,4330.512695,4326.025879,4308.846191,4307.820313,4339.615234,4325.128418,4311.666504,4306.794922,4487.948730,4500.512695,4381.025879,4445.000000,0.000000,0.000000,6.000000,,,,0.000000,2.000000,2.000000,0.000000,2.000000,2.000000,2.000000,0.000000,2.000000,4.000000,4.000000,4.000000,4.000000,2.000000,4.000000,16.666666,,,,,,,,,,,,,,,,,,,,,,,,,,,,
1732083598.627420,1732083598.627745,32.000000,0.000000,4346.025879,4317.179688,4328.974121,4326.153809,4311.538574,4309.743652,4341.922852,4322.179688,4317.179688,4305.384766,4484.615234,4500.000000,4378.974121,4442.179688,0.000000,0.000000,6.000000,,,,0.000000,2.000000,2.000000,0.000000,2.000000,2.000000,2.000000,0.000000,2.000000,4.000000,4.000000,4.000000,4.000000,2.000000,4.000000,16.666666,,,,,,,,,,,,,,,,,8.000000,0.000000,0.521127,0.330750,-0.674561,0.404968,0.962520,-0.258332,-0.136247,-81.903381,45.256195,22.534937
1732083598.635228,1732083598.635553,33.000000,0.000000,4345.384766,4316.153809,4328.717773,4324.102539,4310.000000,4297.692383,4339.743652,4326.025879,4318.333496,4307.692383,4488.846191,4502.436035,4385.512695,4445.384766,0.000000,0.000000,6.000000,,,,0.000000,2.000000,2.000000,0.000000,2.000000,2.000000,2.000000,0.000000,2.000000,4.000000,4.000000,4.000000,4.000000,2.000000,4.000000,16.666666,,,,,,,,,,,,,,,,,,,,,,,,,,,,
1732083598.643036,1732083598.643162,34.000000,0.000000,4340.000000,4317.051270,4327.948730,4321.025879,4306.538574,4294.743652,4337.307617,4334.230957,4314.615234,4305.384766,4486.282227,4505.000000,4384.358887,4446.538574,0.000000,0.000000,6.000000,,,,0.000000,2.000000,2.000000,0.000000,2.000000,2.000000,2.000000,0.000000,2.000000,4.000000,4.000000,4.000000,4.000000,2.000000,4.000000,16.666666,,,,,,,,,,,,,,,,,,,,,,,,,,,,
1732083598.650845,1732083598.650970,35.000000,0.000000,4339.615234,4319.358887,4326.153809,4321.410156,4310.256348,4304.615234,4343.333496,4328.205078,4312.436035,4302.307617,4476.282227,4503.846191,4379.230957,4440.000000,0.000000,0.000000,6.000000,,,,0.000000,2.000000,2.000000,0.000000,2.000000,2.000000,2.000000,0.000000,2.000000,4.000000,4.000000,4.000000,4.000000,2.000000,4.000000,16.666666,,,,,,,,,,,,,,,,,,,,,,,,,,,,
1732083598.658653,1732083598.658678,36.000000,0.000000,4342.692383,4320.256348,4326.282227,4322.948730,4313.974121,4306.153809,4343.846191,4317.307617,4315.512695,4313.589844,4481.025879,4503.717773,4382.692383,4438.077148,0.000000,0.000000,6.000000,,,,0.000000,2.000000,2.000000,0.000000,2.000000,2.000000,2.000000,0.000000,2.000000,4.000000,4.000000,4.000000,4.000000,2.000000,4.000000,16.666666,,,,,,,,,,,,,,,,,9.000000,0.000000,0.518910,0.326111,-0.676392,0.408508,0.970333,-0.251984,-0.129410,-82.040070,44.827518,22.293299
1732083598.666461,1732083598.666486,37.000000,0.000000,4342.179688,4320.769043,4325.769043,4323.461426,4313.077148,4302.948730,4340.128418,4320.128418,4316.410156,4320.128418,4492.820313,4508.974121,4388.846191,4445.512695,0.000000,0.000000,6.000000,,,,0.000000,2.000000,2.000000,0.000000,2.000000,2.000000,2.000000,0.000000,2.000000,4.000000,4.000000,4.000000,4.000000,2.000000,4.000000,16.666666,,,,,,,,,,,,,,,,,,,,,,,,,,,,
1732083598.674270,1732083598.674095,38.000000,0.000000,4340.128418,4319.743652,4326.410156,4320.641113,4313.974121,4304.743652,4340.769043,4329.743652,4314.743652,4310.384766,4488.846191,4513.974121,4385.384766,4445.641113,0.000000,0.000000,6.000000,,,,0.000000,2.000000,2.000000,0.000000,2.000000,2.000000,2.000000,0.000000,2.000000,4.000000,4.000000,4.000000,4.000000,2.000000,4.000000,16.666666,,,,,,,,,,,,,,,,,,,,,,,,,,,,
1732083598.682078,1732083598.681903,39.000000,0.000000,4339.743652,4315.641113,4326.025879,4317.692383,4315.512695,4306.153809,4342.307617,4331.410156,4318.077148,4312.307617,4484.743652,4514.743652,4384.871582,4442.948730,0.000000,0.000000,6.000000,,,,0.000000,2.000000,2.000000,0.000000,2.000000,2.000000,2.000000,0.000000,2.000000,4.000000,4.000000,4.000000,4.000000,2.000000,4.000000,16.666666,,,,,,,,,,,,,,,,,,,,,,,,,,,,
1732083598.689886,1732083598.689611,40.000000,0.000000,4340.000000,4311.410156,4326.538574,4315.897461,4313.333496,4307.820313,4341.282227,4327.948730,4321.153809,4317.948730,4490.897461,4514.871582,4389.102539,4443.974121,0.000000,0.000000,6.000000,,,,0.000000,2.000000,2.000000,0.000000,2.000000,2.000000,2.000000,0.000000,2.000000,4.000000,4.000000,4.000000,4.000000,2.000000,4.000000,16.666666,,,,,,,,,,,,,,,,,10.000000,0.000000,0.518584,0.324951,-0.676941,0.408936,0.970333,-0.251984,-0.129410,-82.150787,44.363625,22.242573
1732083598.697694,1732083598.697419,41.000000,0.000000,4335.512695,4312.179688,4326.153809,4316.666504,4312.179688,4305.384766,4341.922852,4326.922852,4319.358887,4313.205078,4491.666504,4512.179688,4385.384766,4439.102539,0.000000,0.000000,6.000000,,,,0.000000,2.000000,2.000000,0.000000,2.000000,2.000000,2.000000,0.000000,2.000000,4.000000,4.000000,4.000000,4.000000,2.000000,4.000000,16.666666,,,,,,,,,,,,,,,,,,,,,,,,,,,,
1732083598.705502,1732083598.705028,42.000000,0.000000,4330.512695,4312.563965,4327.436035,4316.282227,4315.256348,4299.615234,4343.077148,4332.051270,4322.563965,4315.897461,4488.717773,4510.897461,4380.256348,4436.025879,0.000000,0.000000,6.000000,,,,0.000000,2.000000,2.000000,0.000000,2.000000,2.000000,2.000000,0.000000,2.000000,4.000000,4.000000,4.000000,4.000000,2.000000,4.000000,16.666666,,,,,,,,,,,,,,,,,,,,,,,,,,,,
1732083598.713311,1732083598.712836,43.000000,0.000000,4329.102539,4311.282227,4327.436035,4315.512695,4320.128418,4307.692383,4346.282227,4335.512695,4322.692383,4322.820313,4489.871582,4512.436035,4382.948730,4442.051270,0.000000,0.000000,6.000000,,,,0.000000,2.000000,2.000000,0.000000,2.000000,2.000000,2.000000,0.000000,2.000000,4.000000,4.000000,4.000000,4.000000,2.000000,4.000000,16.666666,,,,,,,,,,,,,,,,,,,,,,,,,,,,
1732083598.721119,1732083598.720744,44.000000,0.000000,4330.128418,4312.051270,4327.692383,4316.794922,4319.743652,4313.974121,4347.948730,4334.487305,4320.384766,4320.128418,4490.000000,4512.051270,4384.871582,4444.743652,0.000000,0.000000,6.000000,,,,0.000000,2.000000,2.000000,0.000000,2.000000,2.000000,2.000000,0.000000,2.000000,4.000000,4.000000,4.000000,4.000000,2.000000,4.000000,16.666666,,,,,,,,,,,,,,,,,11.000000,0.000000,0.517899,0.321716,-0.678345,0.410034,0.941033,-0.268099,-0.114272,-82.217140,43.724533,22.133150
1732083598.728927,1732083598.728552,45.000000,0.000000,4331.153809,4310.512695,4327.948730,4316.025879,4314.743652,4301.282227,4343.077148,4340.000000,4329.487305,4320.128418,4488.974121,4512.692383,4384.102539,4442.563965,0.000000,0.000000,6.000000,,,,0.000000,2.000000,2.000000,0.000000,2.000000,2.000000,2.000000,0.000000,2.000000,4.000000,4.000000,4.000000,4.000000,2.000000,4.000000,16.666666,,,,,,,,,,,,,,,,,,,,,,,,,,,,
1732083598.736735,1732083598.736560,46.000000,0.000000,4332.436035,4308.589844,4327.820313,4315.641113,4314.358887,4296.410156,4338.461426,4334.615234,4327.179688,4320.128418,4488.333496,4513.205078,4383.589844,4445.128418,0.000000,0.000000,6.000000,,,,0.000000,2.000000,2.000000,0.000000,2.000000,2.000000,2.000000,0.000000,2.000000,4.000000,4.000000,4.000000,4.000000,2.000000,4.000000,16.666666,,,,,,,,,,,,,,,,,,,,,,,,,,,,
1732083598.744544,1732083598.744369,47.000000,0.000000,4333.974121,4313.205078,4327.307617,4321.153809,4320.256348,4302.948730,4337.051270,4310.769043,4306.922852,4315.769043,4488.717773,4511.153809,4382.051270,4447.820313,0.000000,0.000000,6.000000,,,,0.000000,2.000000,2.000000,0.000000,2.000000,2.000000,2.000000,0.000000,2.000000,4.000000,4.000000,4.000000,4.000000,2.000000,4.000000,16.666666,,,,,,,,,,,,,,,,,,,,,,,,,,,,
1732083598.752352,1732083598.752277,48.000000,0.000000,4336.538574,4316.666504,4327.948730,4327.307617,4321.153809,4302.307617,4339.743652,4307.948730,4306.922852,4315.512695,4489.615234,4511.410156,4381.922852,4447.563965,0.000000,0.000000,6.000000,,,,0.000000,2.000000,2.000000,0.000000,2.000000,2.000000,2.000000,0.000000,2.000000,4.000000,4.000000,4.000000,4.000000,2.000000,4.000000,16.666666,,,,,,,,,,,,,,,,,12.000000,0.000000,0.517663,0.318237,-0.680237,0.409912,0.961543,-0.242217,-0.113295,-82.377548,43.375206,22.037851
1732083598.760160,1732083598.760085,49.000000,0.000000,4338.205078,4311.922852,4329.743652,4326.282227,4317.948730,4302.179688,4339.743652,4328.974121,4325.256348,4311.282227,4490.897461,4515.512695,4384.487305,4446.538574,0.000000,0.000000,6.000000,,,,0.000000,2.000000,2.000000,0.000000,2.000000,2.000000,2.000000,0.000000,2.000000,4.000000,4.000000,4.000000,4.000000,2.000000,4.000000,16.666666,,,,,,,,,,,,,,,,,,,,,,,,,,,,
1732083598.767969,1732083598.767693,50.000000,0.000000,4334.743652,4309.743652,4328.205078,4326.922852,4321.025879,4306.538574,4340.384766,4330.897461,4325.000000,4311.922852,4488.589844,4514.487305,4383.333496,4444.230957,0.000000,0.000000,6.000000,,,,0.000000,2.000000,2.000000,0.000000,2.000000,2.000000,2.000000,0.000000,2.000000,4.000000,4.000000,4.000000,4.000000,2.000000,4.000000,16.666666,,,,,,,,,,,,,,,,,,,,,,,,,,,,
1732083598.775777,1732083598.775502,51.000000,0.000000,4331.794922,4312.948730,4326.794922,4326.410156,4322.692383,4305.769043,4342.436035,4325.384766,4317.051270,4318.846191,4485.000000,4511.410156,4377.179688,4440.000000,0.000000,0.000000,6.000000,,,,0.000000,2.000000,2.000000,0.000000,2.000000,2.000000,2.000000,0.000000,2.000000,4.000000,4.000000,4.000000,4.000000,2.000000,4.000000,16.666666,,,,,,,,,,,,,,,,,,,,,,,,,,,,
1732083598.783585,1732083598.783210,52.000000,0.000000,4332.948730,4312.692383,4327.436035,4320.641113,4319.230957,4307.436035,4344.358887,4336.666504,4324.358887,4318.077148,4487.692383,4513.589844,4373.717773,4436.282227,0.000000,0.000000,6.000000,,,,0.000000,2.000000,2.000000,0.000000,2.000000,2.000000,2.000000,0.000000,2.000000,4.000000,4.000000,4.000000,4.000000,2.000000,4.000000,16.666666,,,,,,,,,,,,,,,,,13.000000,0.000000,0.517278,0.317322,-0.681030,0.409790,0.964962,-0.223660,-0.121597,-82.382484,43.070583,21.840660
1732083598.791393,1732083598.791018,53.000000,0.000000,4334.871582,4306.153809,4329.743652,4317.563965,4317.948730,4309.358887,4340.384766,4343.077148,4331.794922,4318.717773,4489.743652,4514.743652,4374.871582,4436.538574,0.000000,0.000000,6.000000,,,,0.000000,2.000000,2.000000,0.000000,2.000000,2.000000,2.000000,0.000000,2.000000,4.000000,4.000000,4.000000,4.000000,2.000000,4.000000,16.666666,,,,,,,,,,,,,,,,,,,,,,,,,,,,
1732083598.799202,1732083598.799026,54.000000,0.000000,4330.641113,4298.077148,4329.102539,4314.358887,4318.461426,4307.692383,4343.333496,4340.000000,4327.692383,4318.846191,4480.897461,4506.794922,4369.743652,4431.794922,0.000000,0.000000,6.000000,,,,0.000000,2.000000,2.000000,0.000000,2.000000,2.000000,2.000000,0.000000,2.000000,4.000000,4.000000,4.000000,4.000000,2.000000,4.000000,16.666666,,,,,,,,,,,,,,,,,,,,,,,,,,,,
1732083598.807010,1732083598.806834,55.000000,0.000000,4322.948730,4297.051270,4329.102539,4311.153809,4320.256348,4312.692383,4347.948730,4337.051270,4322.051270,4310.769043,4472.436035,4500.769043,4363.205078,4423.717773,0.000000,0.000000,6.000000,,,,0.000000,2.000000,2.000000,0.000000,2.000000,2.000000,2.000000,0.000000,2.000000,4.000000,4.000000,4.000000,4.000000,2.000000,4.000000,16.666666,,,,,,,,,,,,,,,,,,,,,,,,,,,,
1732083598.814818,1732083598.814742,56.000000,0.000000,4318.461426,4297.692383,4331.794922,4313.846191,4324.102539,4315.897461,4343.333496,4330.256348,4319.871582,4309.487305,4474.102539,4503.461426,4365.897461,4420.897461,0.000000,0.000000,6.000000,,,,0.000000,2.000000,2.000000,0.000000,2.000000,2.000000,2.000000,0.000000,2.000000,4.000000,4.000000,4.000000,4.000000,2.000000,4.000000,16.666666,,,,,,,,,,,,,,,,,14.000000,0.000000,0.516977,0.316895,-0.681458,0.409790,0.935661,-0.241729,-0.136247,-82.531479,42.962173,22.250935
1732083598.822626,1732083598.822551,57.000000,0.000000,4314.871582,4295.256348,4332.820313,4317.307617,4325.000000,4311.666504,4339.487305,4337.692383,4326.153809,4319.487305,4476.922852,4504.615234,4369.230957,4420.769043,0.000000,0.000000,6.000000,,,,0.000000,2.000000,2.000000,0.000000,2.000000,2.000000,2.000000,0.000000,2.000000,4.000000,4.000000,4.000000,4.000000,2.000000,4.000000,16.666666,,,,,,,,,,,,,,,,,,,,,,,,,,,,
1732083598.830435,1732083598.830559,58.000000,0.000000,4314.230957,4300.384766,4329.743652,4317.179688,4321.282227,4310.641113,4345.000000,4352.307617,4336.794922,4322.692383,4477.820313,4499.743652,4366.538574,4420.897461,0.000000,0.000000,6.000000,,,,0.000000,2.000000,2.000000,0.000000,2.000000,2.000000,2.000000,0.000000,2.000000,4.000000,4.000000,4.000000,4.000000,2.000000,4.000000,16.666666,,,,,,,,,,,,,,,,,,,,,,,,,,,,
1732083598.838243,1732083598.838367,59.000000,0.000000,4320.897461,4308.077148,4329.102539,4318.333496,4319.102539,4310.769043,4345.897461,4336.410156,4329.102539,4318.205078,4481.666504,4501.794922,4372.563965,4427.948730,0.000000,0.000000,6.000000,,,,0.000000,2.000000,2.000000,0.000000,2.000000,2.000000,2.000000,0.000000,2.000000,4.000000,4.000000,4.000000,4.000000,2.000000,4.000000,16.666666,,,,,,,,,,,,,,,,,,,,,,,,,,,,
1732083598.846051,1732083598.846275,60.000000,0.000000,4328.717773,4308.846191,4330.000000,4320.641113,4318.589844,4307.179688,4340.897461,4316.922852,4315.512695,4319.487305,4481.282227,4507.563965,4381.538574,4433.717773,0.000000,0.000000,6.000000,,,,0.000000,2.000000,2.000000,0.000000,2.000000,2.000000,2.000000,0.000000,2.000000,4.000000,4.000000,4.000000,4.000000,2.000000,4.000000,16.666666,,,,,,,,,,,,,,,,,15.000000,0.000000,0.515902,0.314697,-0.683105,0.410095,0.942498,-0.235380,-0.128434,-82.607162,42.474361,22.454924
1732083598.853860,1732083598.854083,61.000000,0.000000,4321.282227,4306.153809,4327.820313,4317.563965,4320.641113,4313.077148,4343.717773,4335.256348,4324.871582,4320.128418,4475.384766,4505.384766,4373.205078,4423.717773,0.000000,0.000000,6.000000,,,,0.000000,2.000000,2.000000,0.000000,2.000000,2.000000,2.000000,0.000000,2.000000,4.000000,4.000000,4.000000,4.000000,2.000000,4.000000,16.666666,,,,,,,,,,,,,,,,,,,,,,,,,,,,
1732083598.861668,1732083598.862091,62.000000,0.000000,4311.410156,4306.153809,4326.282227,4314.102539,4327.179688,4323.077148,4349.487305,4349.102539,4335.000000,4319.743652,4474.358887,4505.256348,4361.666504,4418.461426,0.000000,0.000000,6.000000,,,,0.000000,2.000000,2.000000,0.000000,2.000000,2.000000,2.000000,0.000000,2.000000,4.000000,4.000000,4.000000,4.000000,2.000000,4.000000,16.666666,,,,,,,,,,,,,,,,,,,,,,,,,,,,
1732083598.869476,1732083598.869899,63.000000,0.000000,4311.410156,4306.410156,4326.410156,4315.384766,4325.769043,4316.025879,4346.410156,4337.307617,4329.358887,4320.512695,4478.205078,4511.666504,4365.769043,4427.436035,0.000000,0.000000,6.000000,,,,0.000000,2.000000,2.000000,0.000000,2.000000,2.000000,2.000000,0.000000,2.000000,4.000000,4.000000,4.000000,4.000000,2.000000,4.000000,16.666666,,,,,,,,,,,,,,,,,,,,,,,,,,,,
1732083598.877284,1732083598.877807,64.000000,0.000000,4313.461426,4307.051270,4325.769043,4320.128418,4319.358887,4303.589844,4338.589844,4333.846191,4328.717773,4316.794922,4478.077148,4514.871582,4370.000000,4429.743652,0.000000,0.000000,6.000000,,,,0.000000,2.000000,2.000000,0.000000,2.000000,2.000000,2.000000,0.000000,2.000000,4.000000,4.000000,4.000000,4.000000,2.000000,4.000000,16.666666,,,,,,,,,,,,,,,,,16.000000,0.000000,0.515529,0.314087,-0.683411,0.410522,0.951288,-0.225613,-0.131852,-82.613472,41.954231,22.373487
1732083598.885093,1732083598.885616,65.000000,0.000000,4312.436035,4308.846191,4325.384766,4320.641113,4321.538574,4305.512695,4339.230957,4334.230957,4325.384766,4313.333496,4476.282227,4513.333496,4363.717773,4422.179688,1322.000000,0.000000,6.000000,,,,0.000000,2.000000,2.000000,0.000000,2.000000,2.000000,2.000000,0.000000,2.000000,4.000000,4.000000,4.000000,4.000000,2.000000,4.000000,16.666666,,,,,,,,,,,,,,,,,,,,,,,,,,,,
1732083598.892901,1732083598.893624,66.000000,0.000000,4311.922852,4305.897461,4326.538574,4315.256348,4322.307617,4313.974121,4343.974121,4335.769043,4320.897461,4318.589844,4477.692383,4514.487305,4363.846191,4423.077148,1240.000000,0.000000,6.000000,,,,0.000000,2.000000,2.000000,0.000000,2.000000,2.000000,2.000000,0.000000,2.000000,4.000000,4.000000,4.000000,4.000000,2.000000,4.000000,16.666666,,,,,,,,,,,,,,,,,,,,,,,,,,,,
1732083598.900709,1732083598.901432,67.000000,0.000000,4313.077148,4300.512695,4325.897461,4314.102539,4317.436035,4314.230957,4348.717773,4346.025879,4332.820313,4325.256348,4477.051270,4517.436035,4368.717773,4426.666504,1192.000000,0.000000,6.000000,,,,0.000000,2.000000,2.000000,0.000000,2.000000,2.000000,2.000000,0.000000,2.000000,4.000000,4.000000,4.000000,4.000000,2.000000,4.000000,16.666666,,,,,,,,,,,,,,,,,,,,,,,,,,,,
1732083598.908517,1732083598.909340,68.000000,0.000000,4315.128418,4300.256348,4325.897461,4318.205078,4315.512695,4308.333496,4346.153809,4341.410156,4337.820313,4324.743652,4479.743652,4518.077148,4367.948730,4424.487305,1217.000000,0.000000,6.000000,,,,0.000000,2.000000,2.000000,0.000000,2.000000,2.000000,2.000000,0.000000,2.000000,4.000000,4.000000,4.000000,4.000000,2.000000,4.000000,16.666666,,,,,,,,,,,,,,,,,17.000000,0.000000,0.515152,0.314148,-0.683411,0.410950,0.950311,-0.228055,-0.135759,-82.368576,41.784595,22.210859
1732083598.916326,1732083598.917148,69.000000,0.000000,4320.769043,4307.820313,4325.384766,4320.128418,4314.487305,4306.410156,4343.461426,4332.307617,4328.846191,4322.307617,4489.230957,4516.153809,4369.487305,4428.461426,1072.000000,0.000000,6.000000,,,,0.000000,2.000000,2.000000,0.000000,2.000000,2.000000,2.000000,0.000000,2.000000,4.000000,4.000000,4.000000,4.000000,2.000000,4.000000,16.666666,,,,,,,,,,,,,,,,,,,,,,,,,,,,
1732083598.924134,1732083598.924757,70.000000,0.000000,4321.282227,4309.871582,4326.922852,4317.563965,4312.563965,4310.512695,4344.871582,4340.641113,4330.512695,4323.205078,4489.102539,4514.743652,4371.153809,4432.563965,0.000000,0.000000,6.000000,,,,0.000000,2.000000,2.000000,0.000000,2.000000,2.000000,2.000000,0.000000,2.000000,4.000000,4.000000,4.000000,4.000000,2.000000,4.000000,16.666666,,,,,,,,,,,,,,,,,,,,,,,,,,,,
1732083598.931942,1732083598.932565,71.000000,0.000000,4313.846191,4306.282227,4327.692383,4313.974121,4313.717773,4311.794922,4345.769043,4339.743652,4334.871582,4323.205078,4478.717773,4514.743652,4367.179688,4425.641113,1165.000000,0.000000,6.000000,,,,0.000000,2.000000,2.000000,0.000000,2.000000,2.000000,2.000000,0.000000,2.000000,4.000000,4.000000,4.000000,4.000000,2.000000,4.000000,16.666666,,,,,,,,,,,,,,,,,,,,,,,,,,,,
1732083598.939751,1732083598.940273,72.000000,0.000000,4310.256348,4305.512695,4326.794922,4310.256348,4314.230957,4309.230957,4341.025879,4334.487305,4334.230957,4325.384766,4476.410156,4513.846191,4365.769043,4422.563965,1356.000000,0.000000,6.000000,,,,0.000000,2.000000,2.000000,0.000000,2.000000,2.000000,2.000000,0.000000,2.000000,4.000000,4.000000,4.000000,4.000000,2.000000,4.000000,16.666666,,,,,,,,,,,,,,,,,18.000000,0.000000,0.514686,0.314270,-0.683228,0.411743,0.958125,-0.228544,-0.110365,-82.836884,41.762188,21.980795
1732083598.947559,1732083598.948081,73.000000,0.000000,4312.820313,4307.051270,4325.128418,4310.256348,4312.436035,4310.512695,4339.102539,4343.974121,4336.153809,4326.666504,4480.128418,4512.948730,4371.410156,4426.538574,1521.000000,0.000000,6.000000,,,,0.000000,2.000000,2.000000,0.000000,2.000000,2.000000,2.000000,0.000000,2.000000,4.000000,4.000000,4.000000,4.000000,2.000000,4.000000,16.666666,,,,,,,,,,,,,,,,,,,,,,,,,,,,
1732083598.955367,1732083598.955690,74.000000,0.000000,4316.666504,4311.025879,4325.897461,4315.384766,4312.436035,4312.820313,4340.384766,4339.230957,4332.179688,4322.179688,4479.615234,4512.692383,4372.948730,4426.410156,1384.000000,0.000000,6.000000,,,,0.000000,2.000000,2.000000,0.000000,2.000000,2.000000,2.000000,0.000000,2.000000,4.000000,4.000000,4.000000,4.000000,2.000000,4.000000,16.666666,,,,,,,,,,,,,,,,,,,,,,,,,,,,
1732083598.963175,1732083598.963498,75.000000,0.000000,4311.666504,4306.666504,4326.410156,4316.153809,4313.333496,4311.153809,4340.384766,4323.717773,4323.333496,4313.846191,4477.948730,4510.256348,4368.205078,4426.666504,1521.000000,0.000000,6.000000,,,,0.000000,2.000000,2.000000,0.000000,2.000000,2.000000,2.000000,0.000000,2.000000,4.000000,4.000000,4.000000,4.000000,2.000000,4.000000,16.666666,,,,,,,,,,,,,,,,,,,,,,,,,,,,
1732083598.970984,1732083598.971206,76.000000,0.000000,4302.307617,4295.769043,4323.974121,4310.128418,4316.794922,4310.641113,4341.922852,4332.948730,4325.641113,4309.358887,4476.153809,4505.384766,4363.461426,4422.820313,1746.000000,0.000000,6.000000,,,,0.000000,2.000000,2.000000,0.000000,2.000000,2.000000,2.000000,0.000000,2.000000,4.000000,4.000000,4.000000,4.000000,2.000000,4.000000,16.666666,,,,,,,,,,,,,,,,,19.000000,0.000000,0.513809,0.314209,-0.683105,0.413086,0.948358,-0.256867,-0.129899,-82.944542,41.637371,21.867777
1732083598.978792,1732083598.979014,77.000000,0.000000,4304.102539,4296.025879,4324.743652,4309.743652,4320.000000,4311.538574,4343.461426,4348.974121,4334.743652,4316.282227,4474.871582,4499.743652,4363.589844,4415.384766,1553.000000,0.000000,6.000000,,,,0.000000,2.000000,2.000000,0.000000,2.000000,2.000000,2.000000,0.000000,2.000000,4.000000,4.000000,4.000000,4.000000,2.000000,4.000000,16.666666,,,,,,,,,,,,,,,,,,,,,,,,,,,,
1732083598.986600,1732083598.986623,78.000000,0.000000,4313.717773,4303.077148,4326.666504,4317.820313,4319.615234,4311.794922,4342.820313,4342.563965,4335.000000,4318.717773,4477.179688,4501.794922,4368.846191,4420.128418,1384.000000,0.000000,6.000000,,,,0.000000,2.000000,2.000000,0.000000,2.000000,2.000000,2.000000,0.000000,2.000000,4.000000,4.000000,4.000000,4.000000,2.000000,4.000000,16.666666,1.000000,16.666666,2.000000,2.000000,0.000000,2.000000,2.000000,2.000000,0.000000,2.000000,4.000000,4.000000,4.000000,4.000000,2.000000,4.000000,,,,,,,,,,,,
1732083598.994408,1732083598.994431,79.000000,0.000000,4311.025879,4300.000000,4326.282227,4319.871582,4318.589844,4312.820313,4339.743652,4334.487305,4329.230957,4310.769043,4478.333496,4508.589844,4369.743652,4425.512695,1521.000000,0.000000,6.000000,,,,0.000000,2.000000,2.000000,0.000000,2.000000,2.000000,2.000000,0.000000,2.000000,4.000000,4.000000,4.000000,4.000000,2.000000,4.000000,16.666666,,,,,,,,,,,,,,,,,,,,,,,,,,,,
1732083599.002217,1732083599.002139,80.000000,0.000000,4301.282227,4294.615234,4323.846191,4311.666504,4317.307617,4311.666504,4340.897461,4342.436035,4327.692383,4309.487305,4476.025879,4506.410156,4365.769043,4418.717773,1746.000000,0.000000,6.000000,,,,0.000000,2.000000,2.000000,0.000000,2.000000,2.000000,2.000000,0.000000,2.000000,4.000000,4.000000,4.000000,4.000000,2.000000,4.000000,16.666666,,,,,,,,,,,,,,,,,20.000000,0.000000,0.513408,0.314331,-0.683167,0.413391,0.951776,-0.258332,-0.125015,-82.955078,41.444607,21.921234
1732083599.010025,1732083599.009948,81.000000,0.000000,4305.000000,4299.230957,4324.358887,4308.205078,4318.717773,4312.051270,4342.563965,4341.410156,4328.974121,4316.153809,4475.128418,4499.743652,4364.230957,4412.692383,1553.000000,0.000000,6.000000,,,,0.000000,2.000000,2.000000,0.000000,2.000000,2.000000,2.000000,0.000000,2.000000,4.000000,4.000000,4.000000,4.000000,2.000000,4.000000,16.666666,,,,,,,,,,,,,,,,,,,,,,,,,,,,
1732083599.017833,1732083599.017556,82.000000,0.000000,4313.589844,4303.205078,4324.487305,4315.769043,4318.077148,4313.589844,4341.410156,4329.358887,4327.692383,4319.487305,4477.179688,4499.230957,4367.436035,4415.769043,1384.000000,0.000000,6.000000,,,,0.000000,2.000000,2.000000,0.000000,2.000000,2.000000,2.000000,0.000000,2.000000,4.000000,4.000000,4.000000,4.000000,2.000000,4.000000,16.666666,,,,,,,,,,,,,,,,,,,,,,,,,,,,
1732083599.025641,1732083599.025364,83.000000,0.000000,4311.794922,4300.641113,4325.000000,4319.358887,4314.871582,4314.487305,4339.358887,4328.717773,4324.871582,4316.282227,4477.563965,4501.282227,4369.615234,4420.897461,1521.000000,0.000000,6.000000,,,,0.000000,2.000000,2.000000,0.000000,2.000000,2.000000,2.000000,0.000000,2.000000,4.000000,4.000000,4.000000,4.000000,2.000000,4.000000,16.666666,,,,,,,,,,,,,,,,,,,,,,,,,,,,
1732083599.033450,1732083599.033073,84.000000,0.000000,4304.487305,4296.025879,4325.769043,4313.974121,4316.538574,4322.051270,4343.846191,4337.179688,4320.512695,4309.230957,4474.358887,4498.846191,4365.897461,4421.794922,1746.000000,0.000000,6.000000,,,,0.000000,2.000000,2.000000,0.000000,2.000000,2.000000,2.000000,0.000000,2.000000,4.000000,4.000000,4.000000,4.000000,2.000000,4.000000,16.666666,,,,,,,,,,,,,,,,,21.000000,0.000000,0.513454,0.313965,-0.683411,0.413208,0.937614,-0.260286,-0.130875,-82.900276,41.423462,22.062866
1732083599.041258,1732083599.040881,85.000000,0.000000,4300.769043,4293.333496,4326.153809,4309.487305,4317.051270,4324.615234,4343.974121,4341.922852,4320.128418,4302.820313,4471.794922,4499.743652,4362.307617,4414.487305,1553.000000,0.000000,6.000000,,,,0.000000,2.000000,2.000000,0.000000,2.000000,2.000000,2.000000,0.000000,2.000000,4.000000,4.000000,4.000000,4.000000,2.000000,4.000000,16.666666,,,,,,,,,,,,,,,,,,,,,,,,,,,,
1732083599.049066,1732083599.048489,86.000000,0.000000,4303.461426,4293.974121,4325.000000,4310.384766,4311.666504,4313.974121,4340.000000,4345.256348,4326.410156,4305.641113,4473.589844,4502.563965,4364.102539,4410.384766,1384.000000,0.000000,6.000000,,,,0.000000,2.000000,2.000000,0.000000,2.000000,2.000000,2.000000,0.000000,2.000000,4.000000,4.000000,4.000000,4.000000,2.000000,4.000000,16.666666,,,,,,,,,,,,,,,,,,,,,,,,,,,,
1732083599.056874,1732083599.056297,87.000000,0.000000,4307.179688,4296.666504,4324.230957,4312.820313,4309.743652,4306.794922,4338.717773,4336.922852,4326.538574,4310.000000,4476.282227,4502.051270,4367.436035,4420.512695,1521.000000,0.000000,6.000000,,,,0.000000,2.000000,2.000000,0.000000,2.000000,2.000000,2.000000,0.000000,2.000000,4.000000,4.000000,4.000000,4.000000,2.000000,4.000000,16.666666,,,,,,,,,,,,,,,,,,,,,,,,,,,,
1732083599.064683,1732083599.064006,88.000000,0.000000,4307.948730,4297.692383,4324.743652,4312.563965,4311.666504,4311.922852,4341.666504,4326.538574,4322.179688,4306.538574,4476.410156,4501.282227,4366.282227,4423.846191,1746.000000,0.000000,6.000000,,,,0.000000,2.000000,2.000000,0.000000,2.000000,2.000000,2.000000,0.000000,2.000000,4.000000,4.000000,4.000000,4.000000,2.000000,4.000000,16.666666,,,,,,,,,,,,,,,,,22.000000,0.000000,0.513762,0.313599,-0.683716,0.412598,0.959590,-0.238310,-0.120132,-82.970894,41.311340,21.910921
1732083599.072491,1732083599.071814,89.000000,0.000000,4307.563965,4295.897461,4326.410156,4311.025879,4312.563965,4314.358887,4341.410156,4341.153809,4330.897461,4307.820313,4474.230957,4502.051270,4365.384766,4415.512695,1553.000000,0.000000,6.000000,,,,0.000000,2.000000,2.000000,0.000000,2.000000,2.000000,2.000000,0.000000,2.000000,4.000000,4.000000,4.000000,4.000000,2.000000,4.000000,16.666666,,,,,,,,,,,,,,,,,,,,,,,,,,,,
1732083599.080299,1732083599.079422,90.000000,0.000000,4303.974121,4295.897461,4327.179688,4309.615234,4311.410156,4312.948730,4340.384766,4352.820313,4338.077148,4312.563965,4473.333496,4500.512695,4366.922852,4413.974121,1384.000000,0.000000,6.000000,,,,0.000000,2.000000,2.000000,0.000000,2.000000,2.000000,2.000000,0.000000,2.000000,4.000000,4.000000,4.000000,4.000000,2.000000,4.000000,16.666666,,,,,,,,,,,,,,,,,,,,,,,,,,,,
1732083599.088107,1732083599.087230,91.000000,0.000000,4300.128418,4296.666504,4326.282227,4309.871582,4309.102539,4316.153809,4341.538574,4339.871582,4330.000000,4311.410156,4473.589844,4498.589844,4366.794922,4421.025879,1521.000000,0.000000,6.000000,,,,0.000000,2.000000,2.000000,0.000000,2.000000,2.000000,2.000000,0.000000,2.000000,4.000000,4.000000,4.000000,4.000000,2.000000,4.000000,16.666666,,,,,,,,,,,,,,,,,,,,,,,,,,,,
1732083599.095916,1732083599.094939,92.000000,0.000000,4298.333496,4294.102539,4323.717773,4310.512695,4320.256348,4317.692383,4342.307617,4337.563965,4328.974121,4310.128418,4469.615234,4502.051270,4365.769043,4420.512695,1746.000000,0.000000,6.000000,,,,0.000000,2.000000,2.000000,0.000000,2.000000,2.000000,2.000000,0.000000,2.000000,4.000000,4.000000,4.000000,4.000000,2.000000,4.000000,16.666666,,,,,,,,,,,,,,,,,23.000000,0.000000,0.514211,0.313721,-0.684021,0.411438,0.939568,-0.238310,-0.134294,-83.018089,41.237183,21.799513
1732083599.103724,1732083599.102747,93.000000,0.000000,4300.000000,4292.563965,4322.179688,4307.948730,4328.461426,4311.794922,4341.922852,4344.487305,4336.794922,4311.538574,4468.077148,4502.436035,4366.410156,4414.743652,1553.000000,0.000000,6.000000,,,,0.000000,2.000000,2.000000,0.000000,2.000000,2.000000,2.000000,0.000000,2.000000,4.000000,4.000000,4.000000,4.000000,2.000000,4.000000,16.666666,,,,,,,,,,,,,,,,,,,,,,,,,,,,
1732083599.111532,1732083599.110355,94.000000,0.000000,4305.000000,4296.282227,4326.025879,4308.077148,4310.384766,4306.794922,4339.871582,4332.820313,4332.563965,4312.563965,4468.205078,4496.153809,4367.563965,4416.282227,1384.000000,0.000000,6.000000,,,,0.000000,2.000000,2.000000,0.000000,2.000000,2.000000,2.000000,0.000000,2.000000,4.000000,4.000000,4.000000,4.000000,2.000000,4.000000,16.666666,,,,,,,,,,,,,,,,,,,,,,,,,,,,
1732083599.119341,1732083599.118164,95.000000,0.000000,4304.743652,4297.820313,4327.307617,4310.512695,4301.410156,4313.846191,4341.794922,4323.846191,4321.538574,4310.641113,4461.922852,4493.717773,4367.692383,4416.666504,1521.000000,0.000000,6.000000,,,,0.000000,2.000000,2.000000,0.000000,2.000000,2.000000,2.000000,0.000000,2.000000,4.000000,4.000000,4.000000,4.000000,2.000000,4.000000,16.666666,,,,,,,,,,,,,,,,,,,,,,,,,,,,
1732083599.127149,1732083599.126072,96.000000,0.000000,4296.666504,4294.743652,4325.128418,4304.230957,4315.897461,4321.025879,4343.974121,4335.384766,4323.333496,4306.794922,4457.307617,4496.666504,4364.743652,4410.512695,1746.000000,0.000000,6.000000,,,,0.000000,2.000000,2.000000,0.000000,2.000000,2.000000,2.000000,0.000000,2.000000,4.000000,4.000000,4.000000,4.000000,2.000000,4.000000,16.666666,,,,,,,,,,,,,,,,,24.000000,0.000000,0.514392,0.313904,-0.684021,0.411072,0.939568,-0.238310,-0.134294,-82.829651,41.045452,21.690939
1732083599.134957,1732083599.133880,97.000000,0.000000,4292.436035,4291.538574,4323.333496,4297.436035,4312.051270,4314.230957,4342.948730,4339.102539,4327.563965,4307.948730,4460.000000,4490.384766,4359.743652,4407.563965,1553.000000,0.000000,6.000000,,,,0.000000,2.000000,2.000000,0.000000,2.000000,2.000000,2.000000,0.000000,2.000000,4.000000,4.000000,4.000000,4.000000,2.000000,4.000000,16.666666,,,,,,,,,,,,,,,,,,,,,,,,,,,,
1732083599.142765,1732083599.141888,98.000000,0.000000,4291.282227,4290.384766,4324.230957,4299.487305,4306.538574,4308.589844,4339.230957,4330.769043,4322.820313,4306.025879,4459.615234,4483.333496,4356.153809,4407.179688,1384.000000,0.000000,6.000000,,,,0.000000,2.000000,2.000000,0.000000,2.000000,2.000000,2.000000,0.000000,2.000000,4.000000,4.000000,4.000000,4.000000,2.000000,4.000000,16.666666,,,,,,,,,,,,,,,,,,,,,,,,,,,,
1732083599.150574,1732083599.149696,99.000000,0.000000,4285.512695,4289.743652,4325.897461,4297.307617,4320.128418,4313.205078,4340.256348,4334.871582,4326.282227,4301.025879,4456.538574,4491.025879,4358.846191,4405.897461,1521.000000,0.000000,6.000000,,,,0.000000,2.000000,2.000000,0.000000,2.000000,2.000000,2.000000,0.000000,2.000000,4.000000,4.000000,4.000000,4.000000,2.000000,4.000000,16.666666,,,,,,,,,,,,,,,,,,,,,,,,,,,,
1732083599.158382,1732083599.157604,100.000000,0.000000,4286.666504,4288.589844,4326.410156,4295.641113,4313.589844,4317.563965,4343.205078,4345.641113,4337.948730,4308.333496,4461.282227,4498.974121,4363.205078,4406.922852,1746.000000,0.000000,6.000000,,,,0.000000,2.000000,2.000000,0.000000,2.000000,2.000000,2.000000,0.000000,2.000000,4.000000,4.000000,4.000000,4.000000,2.000000,4.000000,16.666666,,,,,,,,,,,,,,,,,25.000000,0.000000,0.514562,0.314026,-0.684021,0.410767,0.942498,-0.232450,-0.126480,-82.933685,41.045151,21.686327
1732083599.166190,1732083599.165412,101.000000,0.000000,4289.487305,4290.384766,4324.358887,4302.307617,4298.974121,4317.051270,4345.512695,4350.256348,4341.410156,4322.051270,4465.000000,4489.358887,4362.307617,4407.179688,1553.000000,0.000000,6.000000,,,,0.000000,2.000000,2.000000,0.000000,2.000000,2.000000,2.000000,0.000000,2.000000,4.000000,4.000000,4.000000,4.000000,2.000000,4.000000,16.666666,,,,,,,,,,,,,,,,,,,,,,,,,,,,
1732083599.173998,1732083599.173420,102.000000,0.000000,4284.871582,4294.615234,4323.717773,4304.743652,4309.487305,4317.563965,4343.205078,4347.436035,4338.717773,4326.794922,4462.948730,4478.717773,4362.179688,4404.615234,1384.000000,0.000000,6.000000,,,,0.000000,2.000000,2.000000,0.000000,2.000000,2.000000,2.000000,0.000000,2.000000,4.000000,4.000000,4.000000,4.000000,2.000000,4.000000,16.666666,,,,,,,,,,,,,,,,,,,,,,,,,,,,
1732083599.181807,1732083599.181229,103.000000,0.000000,4285.384766,4295.512695,4323.717773,4305.384766,4318.205078,4323.077148,4344.102539,4345.128418,4336.282227,4320.000000,4460.000000,4482.436035,4362.692383,4403.205078,1521.000000,0.000000,6.000000,,,,0.000000,2.000000,2.000000,0.000000,2.000000,2.000000,2.000000,0.000000,2.000000,4.000000,4.000000,4.000000,4.000000,2.000000,4.000000,16.666666,,,,,,,,,,,,,,,,,,,,,,,,,,,,
1732083599.189615,1732083599.188937,104.000000,0.000000,4291.282227,4292.692383,4321.410156,4310.897461,4310.512695,4322.307617,4347.436035,4345.128418,4332.051270,4312.436035,4458.333496,4486.025879,4359.615234,4404.102539,1746.000000,0.000000,6.000000,,,,0.000000,2.000000,2.000000,0.000000,2.000000,2.000000,2.000000,0.000000,2.000000,4.000000,4.000000,4.000000,4.000000,2.000000,4.000000,16.666666,,,,,,,,,,,,,,,,,26.000000,0.000000,0.515336,0.314270,-0.684204,0.409302,0.945428,-0.234892,-0.139665,-82.897949,41.186573,21.695925
1732083599.197423,1732083599.196745,105.000000,0.000000,4291.922852,4292.692383,4323.077148,4310.000000,4308.205078,4314.358887,4348.461426,4345.000000,4333.077148,4312.820313,4463.717773,4483.333496,4356.922852,4409.743652,1553.000000,0.000000,6.000000,,,,0.000000,2.000000,2.000000,0.000000,2.000000,2.000000,2.000000,0.000000,2.000000,4.000000,4.000000,4.000000,4.000000,2.000000,4.000000,16.666666,,,,,,,,,,,,,,,,,,,,,,,,,,,,
1732083599.205232,1732083599.204753,106.000000,0.000000,4292.436035,4298.205078,4325.897461,4308.205078,4312.436035,4314.487305,4345.256348,4343.333496,4336.538574,4321.666504,4472.436035,4488.333496,4359.871582,4414.230957,1384.000000,0.000000,6.000000,,,,0.000000,2.000000,2.000000,0.000000,2.000000,2.000000,2.000000,0.000000,2.000000,4.000000,4.000000,4.000000,4.000000,2.000000,4.000000,16.666666,,,,,,,,,,,,,,,,,,,,,,,,,,,,
1732083599.213040,1732083599.212561,107.000000,0.000000,4291.538574,4297.692383,4323.974121,4310.512695,4310.512695,4318.974121,4344.871582,4337.820313,4332.051270,4323.333496,4475.000000,4498.717773,4360.128418,4412.820313,1521.000000,0.000000,6.000000,,,,0.000000,2.000000,2.000000,0.000000,2.000000,2.000000,2.000000,0.000000,2.000000,4.000000,4.000000,4.000000,4.000000,2.000000,4.000000,16.666666,,,,,,,,,,,,,,,,,,,,,,,,,,,,
1732083599.220848,1732083599.220470,108.000000,0.000000,4283.333496,4285.897461,4322.307617,4303.717773,4310.256348,4320.897461,4346.794922,4340.384766,4339.358887,4318.333496,4471.025879,4500.000000,4355.641113,4411.538574,1746.000000,0.000000,6.000000,,,,0.000000,2.000000,2.000000,0.000000,2.000000,2.000000,2.000000,0.000000,2.000000,4.000000,4.000000,4.000000,4.000000,2.000000,4.000000,16.666666,,,,,,,,,,,,,,,,,27.000000,0.000000,0.515685,0.314758,-0.683899,0.408997,0.958613,-0.239775,-0.140642,-82.920677,41.286121,21.542032
1732083599.228656,1732083599.228278,109.000000,0.000000,4283.717773,4280.769043,4325.769043,4296.410156,4312.307617,4326.794922,4348.589844,4350.897461,4349.102539,4321.538574,4472.948730,4497.692383,4358.461426,4414.102539,1553.000000,0.000000,6.000000,,,,0.000000,2.000000,2.000000,0.000000,2.000000,2.000000,2.000000,0.000000,2.000000,4.000000,4.000000,4.000000,4.000000,2.000000,4.000000,16.666666,,,,,,,,,,,,,,,,,,,,,,,,,,,,
1732083599.236465,1732083599.236286,110.000000,0.000000,4293.717773,4289.102539,4325.128418,4300.897461,4307.563965,4327.563965,4350.256348,4351.025879,4335.769043,4318.846191,4476.410156,4498.077148,4356.922852,4413.589844,1384.000000,0.000000,6.000000,,,,0.000000,2.000000,2.000000,0.000000,2.000000,2.000000,2.000000,0.000000,2.000000,4.000000,4.000000,4.000000,4.000000,2.000000,4.000000,16.666666,,,,,,,,,,,,,,,,,,,,,,,,,,,,
1732083599.244273,1732083599.244094,111.000000,0.000000,4296.794922,4289.871582,4323.205078,4306.794922,4309.871582,4313.846191,4346.666504,4342.436035,4328.205078,4310.897461,4468.333496,4499.615234,4347.051270,4410.384766,1521.000000,0.000000,6.000000,,,,0.000000,2.000000,2.000000,0.000000,2.000000,2.000000,2.000000,0.000000,2.000000,4.000000,4.000000,4.000000,4.000000,2.000000,4.000000,16.666666,,,,,,,,,,,,,,,,,,,,,,,,,,,,
1732083599.252081,1732083599.252002,112.000000,0.000000,4289.615234,4286.666504,4323.077148,4305.512695,4323.974121,4310.641113,4342.692383,4338.846191,4337.051270,4310.641113,4458.846191,4498.974121,4344.358887,4407.307617,1746.000000,0.000000,6.000000,,,,0.000000,2.000000,2.000000,0.000000,2.000000,2.000000,2.000000,0.000000,2.000000,4.000000,4.000000,4.000000,4.000000,2.000000,4.000000,16.666666,,,,,,,,,,,,,,,,,28.000000,0.000000,0.515985,0.315247,-0.683594,0.408752,0.950800,-0.245147,-0.145037,-82.840744,41.326759,21.470713
1732083599.259889,1732083599.259810,113.000000,0.000000,4290.769043,4293.077148,4323.846191,4303.461426,4316.282227,4318.846191,4343.205078,4340.128418,4335.769043,4311.153809,4459.871582,4498.589844,4350.897461,4408.461426,1553.000000,0.000000,6.000000,,,,0.000000,2.000000,2.000000,0.000000,2.000000,2.000000,2.000000,0.000000,2.000000,4.000000,4.000000,4.000000,4.000000,2.000000,4.000000,16.666666,,,,,,,,,,,,,,,,,,,,,,,,,,,,
1732083599.267698,1732083599.267818,114.000000,0.000000,4302.820313,4296.922852,4323.974121,4307.692383,4294.230957,4318.205078,4346.794922,4345.897461,4332.051270,4311.282227,4465.769043,4498.589844,4352.820313,4414.230957,1384.000000,0.000000,6.000000,,,,0.000000,2.000000,2.000000,0.000000,2.000000,2.000000,2.000000,0.000000,2.000000,4.000000,4.000000,4.000000,4.000000,2.000000,4.000000,16.666666,,,,,,,,,,,,,,,,,,,,,,,,,,,,
1732083599.275506,1732083599.275626,115.000000,0.000000,4306.922852,4295.384766,4324.487305,4311.025879,4297.563965,4317.051270,4344.871582,4351.538574,4336.153809,4316.794922,4465.128418,4502.436035,4349.743652,4414.615234,1521.000000,0.000000,6.000000,,,,0.000000,2.000000,2.000000,0.000000,2.000000,2.000000,2.000000,0.000000,2.000000,4.000000,4.000000,4.000000,4.000000,2.000000,4.000000,16.666666,,,,,,,,,,,,,,,,,,,,,,,,,,,,
1732083599.283314,1732083599.283535,116.000000,0.000000,4303.846191,4297.692383,4323.205078,4310.641113,4309.487305,4317.692383,4344.615234,4342.563965,4329.102539,4314.487305,4460.256348,4504.358887,4350.512695,4408.717773,1746.000000,0.000000,6.000000,,,,0.000000,2.000000,2.000000,0.000000,2.000000,2.000000,2.000000,0.000000,2.000000,4.000000,4.000000,4.000000,4.000000,2.000000,4.000000,16.666666,,,,,,,,,,,,,,,,,29.000000,0.000000,0.516573,0.316711,-0.682800,0.408203,0.963985,-0.231474,-0.152851,-82.704338,41.299675,21.417944
1732083599.291122,1732083599.291343,117.000000,0.000000,4307.307617,4299.230957,4324.102539,4312.563965,4304.230957,4317.307617,4346.410156,4338.717773,4324.871582,4310.256348,4460.769043,4502.307617,4352.692383,4409.102539,1553.000000,0.000000,6.000000,,,,0.000000,2.000000,2.000000,0.000000,2.000000,2.000000,2.000000,0.000000,2.000000,4.000000,4.000000,4.000000,4.000000,2.000000,4.000000,16.666666,,,,,,,,,,,,,,,,,,,,,,,,,,,,
1732083599.298931,1732083599.299251,118.000000,0.000000,4306.538574,4295.897461,4326.794922,4313.846191,4303.333496,4321.282227,4347.948730,4353.974121,4335.897461,4316.922852,4461.153809,4500.897461,4348.461426,4409.358887,1384.000000,0.000000,6.000000,,,,0.000000,2.000000,2.000000,0.000000,2.000000,2.000000,2.000000,0.000000,2.000000,4.000000,4.000000,4.000000,4.000000,2.000000,4.000000,16.666666,,,,,,,,,,,,,,,,,,,,,,,,,,,,
1732083599.306739,1732083599.307059,119.000000,0.000000,4296.282227,4295.769043,4327.563965,4311.410156,4312.051270,4324.615234,4345.897461,4356.794922,4337.563965,4314.487305,4458.461426,4498.077148,4339.871582,4401.153809,1521.000000,0.000000,6.000000,,,,0.000000,2.000000,2.000000,0.000000,2.000000,2.000000,2.000000,0.000000,2.000000,4.000000,4.000000,4.000000,4.000000,2.000000,4.000000,16.666666,,,,,,,,,,,,,,,,,,,,,,,,,,,,
1732083599.314547,1732083599.314767,120.000000,0.000000,4299.102539,4305.128418,4327.820313,4315.128418,4310.128418,4323.974121,4346.025879,4343.077148,4330.769043,4308.205078,4460.000000,4498.333496,4342.820313,4401.410156,1746.000000,0.000000,6.000000,,,,0.000000,2.000000,2.000000,0.000000,2.000000,2.000000,2.000000,0.000000,2.000000,4.000000,4.000000,4.000000,4.000000,2.000000,4.000000,16.666666,,,,,,,,,,,,,,,,,30.000000,0.000000,0.517202,0.317261,-0.682434,0.407593,0.943475,-0.235869,-0.133805,-82.695511,41.421070,21.498535
1732083599.322355,1732083599.322576,121.000000,0.000000,4308.461426,4309.487305,4328.461426,4318.846191,4311.922852,4323.333496,4347.051270,4345.641113,4335.256348,4316.794922,4464.358887,4501.666504,4352.307617,4408.333496,1553.000000,0.000000,6.000000,,,,0.000000,2.000000,2.000000,0.000000,2.000000,2.000000,2.000000,0.000000,2.000000,4.000000,4.000000,4.000000,4.000000,2.000000,4.000000,16.666666,,,,,,,,,,,,,,,,,,,,,,,,,,,,
1732083599.330164,1732083599.330184,122.000000,0.000000,4304.487305,4301.922852,4326.538574,4313.077148,4320.384766,4322.051270,4345.000000,4353.333496,4340.769043,4321.410156,4462.436035,4500.000000,4348.333496,4402.820313,1384.000000,0.000000,6.000000,,,,0.000000,2.000000,2.000000,0.000000,2.000000,2.000000,2.000000,0.000000,2.000000,4.000000,4.000000,4.000000,4.000000,2.000000,4.000000,16.666666,,,,,,,,,,,,,,,,,,,,,,,,,,,,
1732083599.337972,1732083599.337992,123.000000,0.000000,4298.974121,4301.410156,4326.410156,4311.025879,4310.384766,4315.384766,4342.948730,4342.820313,4333.717773,4314.102539,4460.897461,4495.256348,4341.410156,4396.410156,1521.000000,0.000000,6.000000,,,,0.000000,2.000000,2.000000,0.000000,2.000000,2.000000,2.000000,0.000000,2.000000,4.000000,4.000000,4.000000,4.000000,2.000000,4.000000,16.666666,,,,,,,,,,,,,,,,,,,,,,,,,,,,
1732083599.345780,1732083599.345701,124.000000,0.000000,4300.000000,4312.051270,4330.769043,4316.794922,4293.461426,4316.282227,4346.282227,4335.897461,4326.922852,4312.307617,4461.410156,4493.717773,4342.051270,4398.461426,1746.000000,0.000000,6.000000,,,,0.000000,2.000000,2.000000,0.000000,2.000000,2.000000,2.000000,0.000000,2.000000,4.000000,4.000000,4.000000,4.000000,2.000000,4.000000,16.666666,,,,,,,,,,,,,,,,,31.000000,0.000000,0.517202,0.317261,-0.682434,0.407593,0.943963,-0.228055,-0.144061,-82.628365,41.504398,21.623814
1732083599.353588,1732083599.353509,125.000000,0.000000,4299.358887,4308.974121,4329.871582,4318.589844,4300.641113,4322.436035,4350.256348,4343.974121,4330.641113,4313.974121,4459.487305,4494.615234,4344.102539,4400.256348,1553.000000,0.000000,6.000000,,,,0.000000,2.000000,2.000000,0.000000,2.000000,2.000000,2.000000,0.000000,2.000000,4.000000,4.000000,4.000000,4.000000,2.000000,4.000000,16.666666,,,,,,,,,,,,,,,,,,,,,,,,,,,,
1732083599.361397,1732083599.361117,126.000000,0.000000,4297.563965,4300.769043,4326.410156,4315.000000,4313.077148,4320.512695,4347.563965,4345.769043,4332.051270,4308.461426,4461.410156,4497.436035,4342.563965,4403.205078,1384.000000,0.000000,6.000000,,,,0.000000,2.000000,2.000000,0.000000,2.000000,2.000000,2.000000,0.000000,2.000000,4.000000,4.000000,4.000000,4.000000,2.000000,4.000000,16.666666,,,,,,,,,,,,,,,,,,,,,,,,,,,,
1732083599.369205,1732083599.368925,127.000000,0.000000,4297.307617,4305.256348,4326.794922,4315.384766,4308.974121,4316.025879,4345.897461,4343.205078,4330.256348,4305.641113,4463.589844,4498.461426,4337.948730,4402.820313,6.000000,0.000000,6.000000,,,,0.000000,2.000000,2.000000,0.000000,2.000000,2.000000,2.000000,0.000000,2.000000,4.000000,4.000000,4.000000,4.000000,2.000000,4.000000,16.666666,,,,,,,,,,,,,,,,,,,,,,,,,,,,
1732083599.377013,1732083599.376634,0.000000,0.000000,4296.666504,4306.922852,4327.820313,4319.871582,4309.487305,4318.077148,4344.487305,4349.487305,4331.794922,4306.153809,4460.897461,4494.230957,4338.589844,4398.589844,0.000000,0.000000,6.000000,,,,0.000000,2.000000,2.000000,0.000000,2.000000,2.000000,2.000000,0.000000,2.000000,4.000000,4.000000,4.000000,4.000000,2.000000,4.000000,16.666666,,,,,,,,,,,,,,,,,0.000000,0.000000,0.517720,0.317383,-0.682312,0.407043,0.939568,-0.228055,-0.138689,-82.693977,41.496899,21.841955
1732083599.384822,1732083599.384442,1.000000,0.000000,4295.512695,4301.410156,4325.256348,4320.128418,4309.358887,4323.974121,4343.589844,4351.410156,4332.692383,4304.743652,4461.666504,4488.589844,4341.794922,4399.487305,1322.000000,0.000000,6.000000,,,,0.000000,2.000000,2.000000,0.000000,2.000000,2.000000,2.000000,0.000000,2.000000,4.000000,4.000000,4.000000,4.000000,2.000000,4.000000,16.666666,,,,,,,,,,,,,,,,,,,,,,,,,,,,
1732083599.392630,1732083599.392050,2.000000,0.000000,4294.871582,4297.820313,4326.153809,4313.205078,4302.563965,4319.102539,4344.230957,4348.333496,4330.769043,4306.025879,4462.692383,4487.051270,4338.077148,4399.615234,1240.000000,0.000000,6.000000,,,,0.000000,2.000000,2.000000,0.000000,2.000000,2.000000,2.000000,0.000000,2.000000,4.000000,4.000000,4.000000,4.000000,2.000000,4.000000,16.666666,,,,,,,,,,,,,,,,,,,,,,,,,,,,
1732083599.400438,1732083599.399859,3.000000,0.000000,4294.615234,4297.436035,4328.333496,4308.333496,4312.436035,4313.205078,4347.179688,4353.205078,4333.974121,4307.051270,4458.717773,4487.179688,4333.589844,4397.179688,1192.000000,0.000000,6.000000,,,,0.000000,2.000000,2.000000,0.000000,2.000000,2.000000,2.000000,0.000000,2.000000,4.000000,4.000000,4.000000,4.000000,2.000000,4.000000,16.666666,,,,,,,,,,,,,,,,,,,,,,,,,,,,
1732083599.408246,1732083599.407567,4.000000,0.000000,4295.384766,4300.769043,4328.333496,4314.102539,4316.666504,4318.846191,4346.410156,4351.538574,4336.282227,4306.538574,4456.666504,4486.666504,4331.538574,4397.692383,1215.000000,0.000000,6.000000,,,,0.000000,2.000000,2.000000,0.000000,2.000000,2.000000,2.000000,0.000000,2.000000,4.000000,4.000000,4.000000,4.000000,2.000000,4.000000,16.666666,,,,,,,,,,,,,,,,,1.000000,0.000000,0.519392,0.317444,-0.681885,0.405579,0.947870,-0.217800,-0.128922,-82.740456,41.560822,21.955317
1732083599.416055,1732083599.415375,5.000000,0.000000,4295.641113,4305.897461,4327.436035,4318.461426,4299.871582,4321.538574,4348.205078,4338.205078,4329.102539,4308.846191,4459.102539,4484.615234,4325.897461,4394.615234,1073.000000,0.000000,6.000000,,,,0.000000,2.000000,2.000000,0.000000,2.000000,2.000000,2.000000,0.000000,2.000000,4.000000,4.000000,4.000000,4.000000,2.000000,4.000000,16.666666,,,,,,,,,,,,,,,,,,,,,,,,,,,,
1732083599.423863,1732083599.422983,6.000000,0.000000,4294.871582,4302.051270,4327.051270,4311.538574,4295.512695,4318.846191,4348.205078,4334.743652,4328.461426,4310.128418,4459.871582,4485.000000,4326.282227,4390.384766,0.000000,0.000000,6.000000,,,,0.000000,2.000000,2.000000,0.000000,2.000000,2.000000,2.000000,0.000000,2.000000,4.000000,4.000000,4.000000,4.000000,2.000000,4.000000,16.666666,,,,,,,,,,,,,,,,,,,,,,,,,,,,
1732083599.431671,1732083599.430792,7.000000,0.000000,4292.948730,4298.333496,4326.538574,4308.846191,4310.641113,4320.512695,4346.538574,4342.436035,4334.615234,4307.051270,4463.717773,4488.333496,4331.922852,4395.512695,1184.000000,0.000000,6.000000,,,,0.000000,2.000000,2.000000,0.000000,2.000000,2.000000,2.000000,0.000000,2.000000,4.000000,4.000000,4.000000,4.000000,2.000000,4.000000,16.666666,,,,,,,,,,,,,,,,,,,,,,,,,,,,
1732083599.439479,1732083599.438500,8.000000,0.000000,4292.948730,4306.538574,4326.282227,4316.666504,4311.666504,4322.179688,4346.153809,4348.589844,4338.717773,4314.487305,4472.179688,4488.717773,4329.230957,4399.358887,1376.000000,0.000000,6.000000,,,,0.000000,2.000000,2.000000,0.000000,2.000000,2.000000,2.000000,0.000000,2.000000,4.000000,4.000000,4.000000,4.000000,2.000000,4.000000,16.666666,,,,,,,,,,,,,,,,,2.000000,0.000000,0.519918,0.317444,-0.681702,0.405212,0.947381,-0.215358,-0.138200,-82.691437,41.729263,21.800474
1732083599.447288,1732083599.446308,9.000000,0.000000,4296.794922,4307.563965,4326.666504,4316.666504,4301.410156,4315.641113,4345.384766,4351.666504,4341.922852,4326.282227,4472.563965,4485.897461,4326.282227,4396.410156,1521.000000,0.000000,6.000000,,,,0.000000,2.000000,2.000000,0.000000,2.000000,2.000000,2.000000,0.000000,2.000000,4.000000,4.000000,4.000000,4.000000,2.000000,4.000000,16.666666,,,,,,,,,,,,,,,,,,,,,,,,,,,,
1732083599.455096,1732083599.453917,10.000000,0.000000,4297.692383,4301.666504,4326.538574,4309.871582,4303.461426,4316.025879,4342.179688,4348.846191,4338.077148,4318.717773,4464.871582,4484.102539,4327.436035,4392.563965,1391.000000,0.000000,6.000000,,,,0.000000,2.000000,2.000000,0.000000,2.000000,2.000000,2.000000,0.000000,2.000000,4.000000,4.000000,4.000000,4.000000,2.000000,4.000000,16.666666,,,,,,,,,,,,,,,,,,,,,,,,,,,,
1732083599.462904,1732083599.461725,11.000000,0.000000,4292.820313,4301.410156,4326.922852,4310.641113,4311.538574,4325.256348,4343.205078,4344.358887,4330.256348,4307.820313,4460.128418,4480.641113,4323.461426,4386.025879,1521.000000,0.000000,6.000000,,,,0.000000,2.000000,2.000000,0.000000,2.000000,2.000000,2.000000,0.000000,2.000000,4.000000,4.000000,4.000000,4.000000,2.000000,4.000000,16.666666,,,,,,,,,,,,,,,,,,,,,,,,,,,,
1732083599.470713,1732083599.469633,12.000000,0.000000,4293.461426,4303.717773,4325.256348,4312.436035,4310.128418,4324.102539,4346.666504,4341.666504,4328.717773,4310.897461,4459.871582,4480.256348,4325.897461,4385.384766,1751.000000,0.000000,6.000000,,,,0.000000,2.000000,2.000000,0.000000,2.000000,2.000000,2.000000,0.000000,2.000000,4.000000,4.000000,4.000000,4.000000,2.000000,4.000000,16.666666,,,,,,,,,,,,,,,,,3.000000,0.000000,0.519918,0.317444,-0.681702,0.405212,0.948846,-0.218288,-0.126969,-82.591728,41.970703,21.585051
1732083599.478521,1732083599.477441,13.000000,0.000000,4297.948730,4304.230957,4323.974121,4313.205078,4307.051270,4317.307617,4343.974121,4335.384766,4327.179688,4312.436035,4460.384766,4484.871582,4333.846191,4393.461426,1558.000000,0.000000,6.000000,,,,0.000000,2.000000,2.000000,0.000000,2.000000,2.000000,2.000000,0.000000,2.000000,4.000000,4.000000,4.000000,4.000000,2.000000,4.000000,16.666666,,,,,,,,,,,,,,,,,,,,,,,,,,,,
1732083599.486329,1732083599.485449,14.000000,0.000000,4297.051270,4304.487305,4322.563965,4316.025879,4318.974121,4313.974121,4341.025879,4332.307617,4325.512695,4306.282227,4459.615234,4484.615234,4333.077148,4398.077148,1391.000000,0.000000,6.000000,,,,0.000000,2.000000,2.000000,0.000000,2.000000,2.000000,2.000000,0.000000,2.000000,4.000000,4.000000,4.000000,4.000000,2.000000,4.000000,16.666666,1.000000,16.666666,2.000000,2.000000,0.000000,2.000000,2.000000,2.000000,0.000000,2.000000,4.000000,4.000000,4.000000,4.000000,2.000000,4.000000,,,,,,,,,,,,
1732083599.494137,1732083599.493257,15.000000,0.000000,4297.820313,4303.974121,4323.717773,4313.717773,4320.128418,4312.307617,4341.794922,4342.563965,4330.128418,4303.589844,4458.333496,4481.025879,4331.153809,4394.102539,1521.000000,0.000000,6.000000,,,,0.000000,2.000000,2.000000,0.000000,2.000000,2.000000,2.000000,0.000000,2.000000,4.000000,4.000000,4.000000,4.000000,2.000000,4.000000,16.666666,,,,,,,,,,,,,,,,,,,,,,,,,,,,
1732083599.501946,1732083599.501165,16.000000,0.000000,4301.153809,4307.436035,4323.333496,4312.436035,4301.666504,4315.769043,4343.846191,4342.820313,4331.025879,4305.384766,4458.589844,4481.153809,4335.512695,4391.410156,0.000000,0.000000,6.000000,,,,0.000000,2.000000,2.000000,0.000000,2.000000,2.000000,2.000000,0.000000,2.000000,4.000000,4.000000,4.000000,4.000000,2.000000,4.000000,16.666666,,,,,,,,,,,,,,,,,4.000000,0.000000,0.520876,0.317017,-0.681641,0.404419,0.947381,-0.198266,-0.138200,-82.474297,41.944603,21.833891
1732083599.509754,1732083599.508974,17.000000,0.000000,4297.948730,4309.743652,4322.307617,4314.102539,4297.820313,4320.769043,4344.230957,4332.948730,4327.051270,4305.897461,4460.128418,4482.820313,4335.128418,4392.179688,0.000000,0.000000,6.000000,,,,0.000000,2.000000,2.000000,0.000000,2.000000,2.000000,2.000000,0.000000,2.000000,4.000000,4.000000,4.000000,4.000000,2.000000,4.000000,16.666666,,,,,,,,,,,,,,,,,,,,,,,,,,,,
1732083599.517562,1732083599.516982,18.000000,0.000000,4293.077148,4304.230957,4323.077148,4312.179688,4307.436035,4316.794922,4347.563965,4341.666504,4332.179688,4305.769043,4459.358887,4483.717773,4333.205078,4388.205078,0.000000,0.000000,6.000000,,,,0.000000,2.000000,2.000000,0.000000,2.000000,2.000000,2.000000,0.000000,2.000000,4.000000,4.000000,4.000000,4.000000,2.000000,4.000000,16.666666,,,,,,,,,,,,,,,,,,,,,,,,,,,,
1732083599.525370,1732083599.524790,19.000000,0.000000,4294.615234,4303.205078,4324.102539,4310.512695,4306.153809,4309.230957,4346.153809,4346.794922,4335.641113,4307.692383,4460.000000,4488.333496,4342.051270,4387.820313,0.000000,0.000000,6.000000,,,,0.000000,2.000000,2.000000,0.000000,2.000000,2.000000,2.000000,0.000000,2.000000,4.000000,4.000000,4.000000,4.000000,2.000000,4.000000,16.666666,,,,,,,,,,,,,,,,,,,,,,,,,,,,
1732083599.533179,1732083599.532698,20.000000,0.000000,4296.282227,4304.230957,4322.948730,4310.000000,4298.846191,4309.615234,4342.307617,4344.871582,4332.051270,4310.256348,4460.769043,4488.461426,4343.333496,4389.743652,0.000000,0.000000,6.000000,,,,0.000000,2.000000,2.000000,0.000000,2.000000,2.000000,2.000000,0.000000,2.000000,4.000000,4.000000,4.000000,4.000000,2.000000,4.000000,16.666666,,,,,,,,,,,,,,,,,5.000000,0.000000,0.521218,0.316956,-0.681335,0.404541,0.945428,-0.216823,-0.127945,-82.422516,42.090130,21.960451
1732083599.540987,1732083599.540506,21.000000,0.000000,4293.205078,4298.717773,4321.922852,4306.666504,4300.512695,4312.563965,4340.897461,4347.820313,4331.922852,4309.871582,4457.179688,4483.846191,4333.589844,4387.179688,0.000000,0.000000,6.000000,,,,0.000000,2.000000,2.000000,0.000000,2.000000,2.000000,2.000000,0.000000,2.000000,4.000000,4.000000,4.000000,4.000000,2.000000,4.000000,16.666666,,,,,,,,,,,,,,,,,,,,,,,,,,,,
1732083599.548795,1732083599.548514,22.000000,0.000000,4291.025879,4298.077148,4322.436035,4307.436035,4307.563965,4315.641113,4344.102539,4339.487305,4334.615234,4308.846191,4457.051270,4481.282227,4336.794922,4387.179688,0.000000,0.000000,6.000000,,,,0.000000,2.000000,2.000000,0.000000,2.000000,2.000000,2.000000,0.000000,2.000000,4.000000,4.000000,4.000000,4.000000,2.000000,4.000000,16.666666,,,,,,,,,,,,,,,,,,,,,,,,,,,,
1732083599.556604,1732083599.556322,23.000000,0.000000,4291.153809,4304.743652,4323.205078,4311.410156,4311.025879,4314.871582,4342.820313,4325.897461,4332.179688,4311.922852,4459.230957,4481.666504,4346.538574,4391.282227,0.000000,0.000000,6.000000,,,,0.000000,2.000000,2.000000,0.000000,2.000000,2.000000,2.000000,0.000000,2.000000,4.000000,4.000000,4.000000,4.000000,2.000000,4.000000,16.666666,,,,,,,,,,,,,,,,,,,,,,,,,,,,
1732083599.564412,1732083599.564230,24.000000,0.000000,4292.436035,4306.282227,4323.717773,4311.025879,4303.589844,4312.948730,4343.974121,4330.769043,4327.692383,4315.384766,4453.077148,4482.563965,4341.282227,4386.666504,0.000000,0.000000,6.000000,,,,0.000000,2.000000,2.000000,0.000000,2.000000,2.000000,2.000000,0.000000,2.000000,4.000000,4.000000,4.000000,4.000000,2.000000,4.000000,16.666666,,,,,,,,,,,,,,,,,6.000000,0.000000,0.521319,0.316895,-0.681213,0.404663,0.948358,-0.219265,-0.130875,-82.753906,42.041336,21.746300
1732083599.572220,1732083599.572039,25.000000,0.000000,4294.871582,4302.820313,4323.077148,4310.000000,4308.205078,4316.794922,4347.436035,4340.897461,4327.307617,4310.000000,4445.384766,4477.692383,4331.410156,4376.025879,0.000000,0.000000,6.000000,,,,0.000000,2.000000,2.000000,0.000000,2.000000,2.000000,2.000000,0.000000,2.000000,4.000000,4.000000,4.000000,4.000000,2.000000,4.000000,16.666666,,,,,,,,,,,,,,,,,,,,,,,,,,,,
1732083599.580028,1732083599.580047,26.000000,0.000000,4293.333496,4299.358887,4323.077148,4306.410156,4321.538574,4314.871582,4343.717773,4334.743652,4325.384766,4299.230957,4445.384766,4470.512695,4334.230957,4377.563965,0.000000,0.000000,6.000000,,,,0.000000,2.000000,2.000000,0.000000,2.000000,2.000000,2.000000,0.000000,2.000000,4.000000,4.000000,4.000000,4.000000,2.000000,4.000000,16.666666,,,,,,,,,,,,,,,,,,,,,,,,,,,,
1732083599.587837,1732083599.587855,27.000000,0.000000,4284.615234,4294.871582,4321.922852,4299.487305,4309.871582,4311.153809,4340.512695,4330.769043,4321.025879,4295.897461,4445.512695,4470.256348,4335.512695,4381.410156,0.000000,0.000000,6.000000,,,,0.000000,2.000000,2.000000,0.000000,2.000000,2.000000,2.000000,0.000000,2.000000,4.000000,4.000000,4.000000,4.000000,2.000000,4.000000,16.666666,,,,,,,,,,,,,,,,,,,,,,,,,,,,
1732083599.595645,1732083599.595763,28.000000,0.000000,4281.922852,4293.974121,4320.000000,4302.563965,4295.897461,4318.461426,4343.205078,4337.179688,4325.000000,4300.897461,4444.615234,4472.051270,4333.846191,4378.846191,0.000000,0.000000,6.000000,,,,0.000000,2.000000,2.000000,0.000000,2.000000,2.000000,2.000000,0.000000,2.000000,4.000000,4.000000,4.000000,4.000000,2.000000,4.000000,16.666666,,,,,,,,,,,,,,,,,7.000000,0.000000,0.521570,0.316772,-0.680969,0.404846,0.946893,-0.225613,-0.126480,-82.787331,42.045151,21.732836
1732083599.603453,1732083599.603571,29.000000,0.000000,4292.051270,4295.384766,4320.256348,4311.410156,4305.512695,4321.282227,4342.820313,4342.179688,4328.205078,4302.820313,4451.410156,4472.051270,4340.512695,4379.871582,0.000000,0.000000,6.000000,,,,0.000000,2.000000,2.000000,0.000000,2.000000,2.000000,2.000000,0.000000,2.000000,4.000000,4.000000,4.000000,4.000000,2.000000,4.000000,16.666666,,,,,,,,,,,,,,,,,,,,,,,,,,,,
1732083599.611261,1732083599.611579,30.000000,0.000000,4296.282227,4297.563965,4321.153809,4313.333496,4315.769043,4313.589844,4339.615234,4336.666504,4322.179688,4298.461426,4453.846191,4475.512695,4345.128418,4383.974121,0.000000,0.000000,6.000000,,,,0.000000,2.000000,2.000000,0.000000,2.000000,2.000000,2.000000,0.000000,2.000000,4.000000,4.000000,4.000000,4.000000,2.000000,4.000000,16.666666,,,,,,,,,,,,,,,,,,,,,,,,,,,,
1732083599.619069,1732083599.619387,31.000000,0.000000,4296.153809,4302.179688,4322.307617,4315.256348,4309.230957,4310.769043,4342.179688,4336.666504,4322.692383,4300.897461,4451.794922,4479.102539,4343.589844,4386.025879,0.000000,0.000000,6.000000,,,,0.000000,2.000000,2.000000,0.000000,2.000000,2.000000,2.000000,0.000000,2.000000,4.000000,4.000000,4.000000,4.000000,2.000000,4.000000,16.666666,,,,,,,,,,,,,,,,,,,,,,,,,,,,
1732083599.626878,1732083599.627296,32.000000,0.000000,4302.051270,4307.563965,4324.358887,4320.000000,4304.615234,4313.589844,4343.589844,4343.205078,4329.102539,4306.794922,4456.410156,4477.820313,4346.538574,4385.256348,0.000000,0.000000,6.000000,,,,0.000000,2.000000,2.000000,0.000000,2.000000,2.000000,2.000000,0.000000,2.000000,4.000000,4.000000,4.000000,4.000000,2.000000,4.000000,16.666666,,,,,,,,,,,,,,,,,8.000000,0.000000,0.522004,0.316589,-0.680359,0.405457,0.946893,-0.217800,-0.126969,-82.687737,41.971573,21.670263
1732083599.634686,1732083599.635104,33.000000,0.000000,4303.846191,4307.948730,4323.077148,4318.333496,4318.846191,4314.230957,4344.230957,4337.948730,4328.333496,4307.179688,4459.871582,4478.333496,4351.794922,4385.128418,0.000000,0.000000,6.000000,,,,0.000000,2.000000,2.000000,0.000000,2.000000,2.000000,2.000000,0.000000,2.000000,4.000000,4.000000,4.000000,4.000000,2.000000,4.000000,16.666666,,,,,,,,,,,,,,,,,,,,,,,,,,,,
1732083599.642494,1732083599.643112,34.000000,0.000000,4300.897461,4303.846191,4322.307617,4317.820313,4324.615234,4313.974121,4342.820313,4334.358887,4329.615234,4310.000000,4456.410156,4481.794922,4350.128418,4390.000000,0.000000,0.000000,6.000000,,,,0.000000,2.000000,2.000000,0.000000,2.000000,2.000000,2.000000,0.000000,2.000000,4.000000,4.000000,4.000000,4.000000,2.000000,4.000000,16.666666,,,,,,,,,,,,,,,,,,,,,,,,,,,,
1732083599.650303,1732083599.650920,35.000000,0.000000,4301.025879,4301.410156,4323.333496,4320.641113,4305.769043,4316.538574,4343.589844,4339.487305,4332.948730,4314.358887,4457.051270,4480.000000,4350.769043,4394.743652,0.000000,0.000000,6.000000,,,,0.000000,2.000000,2.000000,0.000000,2.000000,2.000000,2.000000,0.000000,2.000000,4.000000,4.000000,4.000000,4.000000,2.000000,4.000000,16.666666,,,,,,,,,,,,,,,,,,,,,,,,,,,,
1732083599.658111,1732083599.658828,36.000000,0.000000,4298.205078,4298.333496,4323.205078,4316.666504,4295.897461,4318.333496,4344.102539,4337.563965,4327.948730,4309.743652,4459.358887,4477.179688,4352.307617,4390.897461,0.000000,0.000000,6.000000,,,,0.000000,2.000000,2.000000,0.000000,2.000000,2.000000,2.000000,0.000000,2.000000,4.000000,4.000000,4.000000,4.000000,2.000000,4.000000,16.666666,,,,,,,,,,,,,,,,,9.000000,0.000000,0.522127,0.316650,-0.680054,0.405762,0.949823,-0.214870,-0.126969,-82.618736,41.948639,21.724581
1732083599.665919,1732083599.666636,37.000000,0.000000,4293.974121,4297.692383,4321.794922,4316.025879,4309.743652,4314.743652,4342.692383,4327.563965,4322.692383,4299.615234,4450.641113,4473.333496,4345.256348,4385.000000,0.000000,0.000000,6.000000,,,,0.000000,2.000000,2.000000,0.000000,2.000000,2.000000,2.000000,0.000000,2.000000,4.000000,4.000000,4.000000,4.000000,2.000000,4.000000,16.666666,,,,,,,,,,,,,,,,,,,,,,,,,,,,
1732083599.673727,1732083599.674245,38.000000,0.000000,4298.205078,4303.717773,4323.589844,4323.589844,4313.077148,4309.615234,4337.436035,4330.897461,4325.256348,4303.589844,4447.563965,4469.358887,4342.051270,4386.282227,0.000000,0.000000,6.000000,,,,0.000000,2.000000,2.000000,0.000000,2.000000,2.000000,2.000000,0.000000,2.000000,4.000000,4.000000,4.000000,4.000000,2.000000,4.000000,16.666666,,,,,,,,,,,,,,,,,,,,,,,,,,,,
1732083599.681536,1732083599.682053,39.000000,0.000000,4303.974121,4306.666504,4324.487305,4323.974121,4306.025879,4310.512695,4336.410156,4334.743652,4325.897461,4313.461426,4456.922852,4471.666504,4349.230957,4387.436035,0.000000,0.000000,6.000000,,,,0.000000,2.000000,2.000000,0.000000,2.000000,2.000000,2.000000,0.000000,2.000000,4.000000,4.000000,4.000000,4.000000,2.000000,4.000000,16.666666,,,,,,,,,,,,,,,,,,,,,,,,,,,,
1732083599.689344,1732083599.689761,40.000000,0.000000,4300.641113,4300.641113,4323.077148,4315.512695,4308.846191,4312.179688,4338.461426,4328.589844,4323.846191,4302.948730,4457.820313,4473.846191,4354.487305,4386.538574,0.000000,0.000000,6.000000,,,,0.000000,2.000000,2.000000,0.000000,2.000000,2.000000,2.000000,0.000000,2.000000,4.000000,4.000000,4.000000,4.000000,2.000000,4.000000,16.666666,,,,,,,,,,,,,,,,,10.000000,0.000000,0.522360,0.316528,-0.679932,0.405762,0.949823,-0.214870,-0.126969,-82.592842,42.155064,21.768576
1732083599.697152,1732083599.697569,41.000000,0.000000,4293.717773,4295.512695,4322.692383,4311.282227,4303.974121,4311.922852,4343.077148,4326.025879,4322.692383,4289.743652,4447.948730,4468.333496,4347.436035,4386.282227,0.000000,0.000000,6.000000,,,,0.000000,2.000000,2.000000,0.000000,2.000000,2.000000,2.000000,0.000000,2.000000,4.000000,4.000000,4.000000,4.000000,2.000000,4.000000,16.666666,,,,,,,,,,,,,,,,,,,,,,,,,,,,
1732083599.704960,1732083599.705178,42.000000,0.000000,4292.179688,4297.179688,4322.307617,4312.563965,4303.846191,4312.307617,4344.487305,4332.692383,4323.461426,4300.512695,4446.153809,4464.615234,4341.153809,4382.436035,0.000000,0.000000,6.000000,,,,0.000000,2.000000,2.000000,0.000000,2.000000,2.000000,2.000000,0.000000,2.000000,4.000000,4.000000,4.000000,4.000000,2.000000,4.000000,16.666666,,,,,,,,,,,,,,,,,,,,,,,,,,,,
1732083599.712769,1732083599.712986,43.000000,0.000000,4296.153809,4297.051270,4321.538574,4311.794922,4323.461426,4311.410156,4340.000000,4338.974121,4325.000000,4309.871582,4449.487305,4469.358887,4341.922852,4379.358887,0.000000,0.000000,6.000000,,,,0.000000,2.000000,2.000000,0.000000,2.000000,2.000000,2.000000,0.000000,2.000000,4.000000,4.000000,4.000000,4.000000,2.000000,4.000000,16.666666,,,,,,,,,,,,,,,,,,,,,,,,,,,,
1732083599.720577,1732083599.720694,44.000000,0.000000,4296.922852,4298.077148,4322.948730,4309.871582,4320.000000,4311.025879,4340.641113,4331.153809,4323.717773,4302.820313,4449.871582,4473.333496,4343.077148,4381.538574,0.000000,0.000000,6.000000,,,,0.000000,2.000000,2.000000,0.000000,2.000000,2.000000,2.000000,0.000000,2.000000,4.000000,4.000000,4.000000,4.000000,2.000000,4.000000,16.666666,,,,,,,,,,,,,,,,,11.000000,0.000000,0.523001,0.316650,-0.679382,0.405762,0.941521,-0.221218,-0.118178,-82.441872,42.112270,21.822548
1732083599.728385,1732083599.728503,45.000000,0.000000,4294.871582,4298.077148,4323.077148,4312.692383,4294.743652,4313.205078,4343.846191,4326.922852,4322.820313,4301.666504,4455.128418,4476.282227,4345.897461,4385.897461,0.000000,0.000000,6.000000,,,,0.000000,2.000000,2.000000,0.000000,2.000000,2.000000,2.000000,0.000000,2.000000,4.000000,4.000000,4.000000,4.000000,2.000000,4.000000,16.666666,,,,,,,,,,,,,,,,,,,,,,,,,,,,
1732083599.736194,1732083599.736111,46.000000,0.000000,4295.128418,4295.000000,4320.512695,4316.153809,4294.230957,4314.871582,4342.820313,4335.897461,4327.307617,4306.282227,4459.487305,4480.641113,4350.128418,4386.025879,0.000000,0.000000,6.000000,,,,0.000000,2.000000,2.000000,0.000000,2.000000,2.000000,2.000000,0.000000,2.000000,4.000000,4.000000,4.000000,4.000000,2.000000,4.000000,16.666666,,,,,,,,,,,,,,,,,,,,,,,,,,,,
1732083599.744002,1732083599.743919,47.000000,0.000000,4294.615234,4294.102539,4321.922852,4313.974121,4310.384766,4317.179688,4342.051270,4349.102539,4334.230957,4307.179688,4458.589844,4479.871582,4348.333496,4385.641113,0.000000,0.000000,6.000000,,,,0.000000,2.000000,2.000000,0.000000,2.000000,2.000000,2.000000,0.000000,2.000000,4.000000,4.000000,4.000000,4.000000,2.000000,4.000000,16.666666,,,,,,,,,,,,,,,,,,,,,,,,,,,,
1732083599.751810,1732083599.751627,48.000000,0.000000,4293.589844,4296.794922,4323.333496,4313.846191,4307.051270,4317.307617,4344.358887,4341.282227,4329.230957,4306.410156,4457.436035,4473.077148,4340.897461,4383.846191,0.000000,0.000000,6.000000,,,,0.000000,2.000000,2.000000,0.000000,2.000000,2.000000,2.000000,0.000000,2.000000,4.000000,4.000000,4.000000,4.000000,2.000000,4.000000,16.666666,,,,,,,,,,,,,,,,,12.000000,0.000000,0.523438,0.316345,-0.679260,0.405640,0.964962,-0.217800,-0.103528,-82.302910,42.094273,21.966263
1732083599.759618,1732083599.759436,49.000000,0.000000,4295.769043,4298.461426,4321.922852,4316.794922,4299.743652,4313.333496,4340.512695,4319.230957,4316.153809,4303.717773,4451.153809,4469.230957,4340.000000,4381.794922,0.000000,0.000000,6.000000,,,,0.000000,2.000000,2.000000,0.000000,2.000000,2.000000,2.000000,0.000000,2.000000,4.000000,4.000000,4.000000,4.000000,2.000000,4.000000,16.666666,,,,,,,,,,,,,,,,,,,,,,,,,,,,
